Node Number	X Location (m)	Y Location (m)	Z Location (m)	Stress Intensity (Pa)
1	-5.	-5.	10.62	88548
2	-5.	-5.6198	10.	5.1431e+005
3	-5.	-5.4382	10.438	1.1469e+005
4	-5.6198	-5.	10.	3.9719e+005
5	-5.4382	-5.	10.438	1.5433e+005
6	-5.4382	-5.4382	10.	7.0687e+005
7	-5.	5.6198	10.	3.9932e+005
8	-5.	5.	10.62	80756
9	-5.	5.4382	10.438	1.7558e+005
10	-5.6198	5.	10.	4.6749e+005
11	-5.4382	5.4382	10.	5.9553e+005
12	-5.4382	5.	10.438	1.6805e+005
13	5.	-5.6198	10.	4.6717e+005
14	5.	-5.	10.62	99200
15	5.	-5.4382	10.438	1.5046e+005
16	5.6198	-5.	10.	4.2503e+005
17	5.4382	-5.4382	10.	6.0993e+005
18	5.4382	-5.	10.438	1.4581e+005
19	5.	5.	10.62	97831
20	5.	5.6198	10.	4.7411e+005
21	5.	5.4382	10.438	1.4648e+005
22	5.6198	5.	10.	4.2502e+005
23	5.4382	5.	10.438	1.4499e+005
24	5.4382	5.4382	10.	6.2768e+005
25	-5.6198	-5.	0.	3.2714e+005
26	-5.	-5.6198	0.	3.2259e+005
27	-5.4382	-5.4382	0.	3.1977e+005
28	-5.	-5.	-0.61976	1.7248e+005
29	-5.4382	-5.	-0.43823	1.4143e+005
30	-5.	-5.4382	-0.43823	1.2142e+005
31	5.	-5.6198	0.	3.2691e+005
32	5.6198	-5.	0.	3.1513e+005
33	5.4382	-5.4382	0.	3.0692e+005
34	5.	-5.	-0.61976	1.7093e+005
35	5.	-5.4382	-0.43823	1.4939e+005
36	5.4382	-5.	-0.43823	1.2591e+005
37	-5.	5.6198	0.	2.9217e+005
38	-5.6198	5.	0.	3.355e+005
39	-5.4382	5.4382	0.	3.1991e+005
40	-5.	5.	-0.61976	1.7016e+005
41	-5.	5.4382	-0.43823	1.1939e+005
42	-5.4382	5.	-0.43823	1.6299e+005
43	5.	5.6198	0.	3.0971e+005
44	5.	5.	-0.61976	1.9194e+005
45	5.	5.4382	-0.43823	1.2274e+005
46	5.6198	5.	0.	3.7417e+005
47	5.4382	5.4382	0.	3.2945e+005
48	5.4382	5.	-0.43823	1.6913e+005
49	-4.5618	4.5618	9.5618	1.6036e+005
50	-4.4588	5.3019	9.4588	4.2209e+005
51	-4.3882	4.9008	9.3882	96635
52	-4.4588	4.4588	10.302	44970
53	-4.3882	4.3882	9.9008	35035
54	4.5618	4.5618	9.5618	1.3313e+005
55	4.4588	5.3019	9.4588	3.2128e+005
56	4.3882	4.9008	9.3882	98324
57	4.4588	4.4588	10.302	44329
58	4.3882	4.3882	9.9008	29924
59	-4.5618	4.5618	0.43823	4.9114e+005
60	-4.4588	5.3019	0.54122	4.0434e+005
61	-4.3882	4.9008	0.61176	7.8285e+005
62	-5.3019	4.4588	0.54122	3.9321e+005
63	-4.9008	4.3882	0.61176	8.2805e+005
64	-5.3019	4.4588	9.4588	4.4704e+005
65	-4.9008	4.3882	9.3882	1.3624e+005
66	-4.5618	-4.5618	9.5618	1.461e+005
67	-4.4588	-4.4588	10.302	51703
68	-4.3882	-4.3882	9.9008	42971
69	-4.4588	-5.3019	9.4588	4.5132e+005
70	-4.3882	-4.9008	9.3882	1.0404e+005
71	4.5618	-4.5618	9.5618	1.3992e+005
72	4.4588	-4.4588	10.302	45302
73	4.3882	-4.3882	9.9008	31753
74	4.4588	-5.3019	9.4588	3.3719e+005
75	4.3882	-4.9008	9.3882	1.0507e+005
76	-5.3019	-4.4588	9.4588	3.8555e+005
77	-4.9008	-4.3882	9.3882	1.6615e+005
78	-4.5618	-4.5618	0.43823	5.1459e+005
79	-4.4588	-5.3019	0.54122	3.5896e+005
80	-4.3882	-4.9008	0.61176	8.9079e+005
81	-5.3019	-4.4588	0.54122	3.6325e+005
82	-4.9008	-4.3882	0.61176	7.6382e+005
83	-4.4588	4.4588	-0.30195	2.9755e+005
84	-4.3882	4.3882	9.9222e-002	1.835e+005
85	4.5618	4.5618	0.43823	6.9544e+005
86	4.4588	5.3019	0.54122	4.1279e+005
87	4.3882	4.9008	0.61176	1.0007e+006
88	4.4588	4.4588	-0.30195	3.0823e+005
89	4.3882	4.3882	9.9222e-002	1.2626e+005
90	5.3019	-4.4588	9.4588	3.8275e+005
91	4.9008	-4.3882	9.3882	1.6762e+005
92	4.5618	-4.5618	0.43823	4.8037e+005
93	5.3019	-4.4588	0.54122	3.6382e+005
94	4.9008	-4.3882	0.61176	8.5635e+005
95	4.4588	-5.3019	0.54122	3.9633e+005
96	4.3882	-4.9008	0.61176	8.156e+005
97	5.3019	4.4588	9.4588	3.7693e+005
98	4.9008	4.3882	9.3882	1.7034e+005
99	5.3019	4.4588	0.54122	3.7897e+005
100	4.9008	4.3882	0.61176	8.5258e+005
101	-4.4588	-4.4588	-0.30195	3.1494e+005
102	-4.3882	-4.3882	9.9222e-002	2.0899e+005
103	4.4588	-4.4588	-0.30195	3.0789e+005
104	4.3882	-4.3882	9.9222e-002	1.9908e+005
105	4.5304	3.7906	-0.40444	1.5415e+005
106	5.4044	-3.7906	0.4696	2.7509e+005
107	5.0859	3.4524	0.61378	85811
108	4.3862	-3.4524	-8.5864e-002	1.7935e+005
109	5.4569	-4.0479	-0.41873	2.2065e+005
110	5.4187	4.0479	-0.4569	2.1278e+005
111	4.9496	-3.9859	-0.61771	2.2983e+005
112	5.6177	3.9859	5.0372e-002	1.7408e+005
113	4.3857	2.652	8.1691e-002	1.4209e+005
114	4.9183	-2.652	0.61435	4.7443e+005
115	4.7461	2.8322	0.56535	3.0285e+005
116	4.4346	-2.8322	0.25392	1.9354e+005
117	5.6195	-3.5035	1.6997e-002	2.0416e+005
118	4.9881	-3.0349	-0.61964	3.1926e+005
119	4.983	3.5035	-0.61952	1.2765e+005
120	5.6196	3.0349	1.1863e-002	1.5731e+005
121	4.6782	2.807	-0.52967	3.2575e+005
122	5.5297	-2.807	0.32179	2.2042e+005
123	5.2982	2.3868	0.54328	4.987e+005
124	4.4567	-2.3868	-0.29824	2.9778e+005
125	5.5461	-2.9879	-0.29305	2.1068e+005
126	5.3232	3.0659	-0.52882	2.4346e+005
127	4.5678	1.4378	0.44422	6.1324e+005
128	4.6267	1.754	-0.49471	6.1532e+005
129	4.5556	-1.4365	0.43199	5.569e+005
130	5.4947	-1.754	0.37332	4.4979e+005
131	5.3838	-1.9359	-0.48661	6.4659e+005
132	5.4854	2.0305	-0.3854	4.8417e+005
133	5.5961	2.1342	0.16959	1.6963e+005
134	4.8304	-2.1342	-0.5961	6.0045e+005
135	4.3817	1.6883	-4.3028e-002	1.0676e+005
136	5.07	2.357	-0.61579	6.0337e+005
137	5.043	-1.6883	0.61826	7.4642e+005
138	5.6158	-2.357	-7.0013e-002	1.4504e+005
139	5.4665	1.0523	0.40799	6.0882e+005
140	4.5836	-1.0144	-0.45901	7.5115e+005
141	4.4145	0.69608	-0.20332	3.5348e+005
142	5.2033	-0.69608	0.58546	8.7238e+005
143	4.7981	8.9606e-002	0.58593	9.7291e+005
144	4.4138	-0.10119	0.20108	2.9587e+005
145	4.9126	0.72997	-0.61357	9.9487e+005
146	5.619	-0.46421	-3.1417e-002	74160
147	5.2194	-0.77449	-0.57963	8.2913e+005
148	5.5747	0.99136	-0.23196	3.3406e+005
149	5.4193	0.19197	-0.45643	7.2495e+005
150	-3.7906	-5.4044	0.4696	2.7187e+005
151	3.7638	-5.4164	0.45904	1.7936e+005
152	-3.4524	-4.3862	-8.5864e-002	1.7686e+005
153	3.596	-4.3904	-0.11153	2.147e+005
154	-4.0479	-5.4569	-0.41873	2.1449e+005
155	4.0962	-5.3976	-0.47542	2.2993e+005
156	-3.9859	-4.9496	-0.61771	2.2543e+005
157	4.1034	-4.8993	-0.61152	2.623e+005
158	4.0339	-5.6194	-2.1824e-002	1.6573e+005
159	-2.652	-4.9183	0.61435	5.0237e+005
160	2.7112	-4.9547	0.6181	4.5231e+005
161	-2.8322	-4.4346	0.25392	1.9812e+005
162	2.9294	-4.4389	0.2631	1.9077e+005
163	-3.5035	-5.6195	1.6997e-002	2.071e+005
164	-3.0349	-4.9881	-0.61964	3.0758e+005
165	3.4629	-4.8777	-0.60757	1.0782e+005
166	3.1562	-5.6127	-9.33e-002	2.1057e+005
167	-2.807	-5.5297	0.32179	2.2946e+005
168	2.63	-5.5378	0.30801	2.4365e+005
169	-2.4545	-4.4752	-0.32972	3.2897e+005
170	2.6999	-4.5548	-0.4312	3.8135e+005
171	-3.0652	-5.529	-0.3229	2.1946e+005
172	3.1057	-5.2706	-0.55755	2.8386e+005
173	-1.5697	-4.5623	0.43873	5.3898e+005
174	-1.8332	-5.4986	0.3681	4.1496e+005
175	1.6794	-5.3583	0.50567	6.5357e+005
176	1.6119	-4.416	0.20751	2.5912e+005
177	-2.0479	-5.377	-0.49188	5.6886e+005
178	2.1079	-5.3883	-0.48302	5.8481e+005
179	-2.1342	-4.8304	-0.5961	6.3143e+005
180	-2.4174	-5.6168	-6.0955e-002	1.7278e+005
181	1.919	-5.6101	0.10895	1.9759e+005
182	1.725	-4.8775	0.60753	7.0045e+005
183	-1.2818	-4.5623	-0.43874	6.1422e+005
184	1.572	-4.6971	-0.5407	7.2121e+005
185	-0.83781	-5.1503	0.60126	8.5182e+005
186	0.8957	-5.6184	-4.1164e-002	1.0301e+005
187	0.60248	-4.9312	0.61593	9.6587e+005
188	-0.21278	-4.3999	0.15478	2.1911e+005
189	0.54292	-4.4517	-0.28882	5.0359e+005
190	-0.69525	-5.6193	-2.4366e-002	1.1302e+005
191	0.49804	-5.1161	-0.60879	1.0325e+006
192	-1.0056	-5.1522	-0.60077	8.6743e+005
193	0.14893	-5.4273	0.44889	6.9249e+005
194	-0.35735	-4.8035	-0.58777	8.8698e+005
195	-5.4044	3.7906	0.4696	1.8695e+005
196	-5.4164	-3.7638	0.45904	1.8003e+005
197	-4.3862	3.4524	-8.5864e-002	2.1409e+005
198	-4.3904	-3.596	-0.11153	2.1484e+005
199	-5.3976	-4.0962	-0.47542	2.3017e+005
200	-5.4569	4.0479	-0.41873	2.1738e+005
201	-4.8993	-4.1034	-0.61152	2.6505e+005
202	-5.6194	-4.0339	-2.1824e-002	1.6144e+005
203	-4.9496	3.9859	-0.61771	2.1841e+005
204	-4.9183	2.652	0.61435	5.0442e+005
205	-4.9547	-2.7112	0.6181	4.5234e+005
206	-4.4346	2.8322	0.25392	1.9641e+005
207	-4.4389	-2.9294	0.2631	1.8861e+005
208	-4.8777	-3.4629	-0.60757	1.083e+005
209	-5.6127	-3.1562	-9.33e-002	2.1038e+005
210	-5.6195	3.5035	1.6997e-002	2.365e+005
211	-4.9881	3.0349	-0.61964	3.095e+005
212	-5.5297	2.807	0.32179	2.2722e+005
213	-5.5378	-2.63	0.30801	2.4322e+005
214	-4.4752	2.4545	-0.32972	3.2925e+005
215	-4.5548	-2.6999	-0.4312	3.8125e+005
216	-5.2706	-3.1057	-0.55755	2.8242e+005
217	-5.529	3.0652	-0.3229	2.1907e+005
218	-4.5623	1.5697	0.43873	5.3767e+005
219	-5.4986	1.8332	0.3681	4.1478e+005
220	-5.3583	-1.6794	0.50567	6.5265e+005
221	-4.416	-1.6119	0.20751	2.5799e+005
222	-5.3883	-2.1079	-0.48302	5.8294e+005
223	-5.377	2.0479	-0.49188	5.6765e+005
224	-4.8304	2.1342	-0.5961	6.3099e+005
225	-5.6168	2.4174	-6.0955e-002	1.7126e+005
226	-5.6101	-1.919	0.10895	1.978e+005
227	-4.8775	-1.725	0.60753	6.987e+005
228	-4.5623	1.2818	-0.43874	6.1409e+005
229	-4.6971	-1.572	-0.5407	7.2033e+005
230	-5.1503	0.83781	0.60126	8.509e+005
231	-5.6184	-0.8957	-4.1164e-002	1.0238e+005
232	-4.9312	-0.60248	0.61593	9.6426e+005
233	-4.3999	0.21278	0.15478	2.181e+005
234	-4.4517	-0.54292	-0.28882	5.0363e+005
235	-5.6193	0.69525	-2.4366e-002	1.1241e+005
236	-5.1161	-0.49804	-0.60879	1.0311e+006
237	-5.1522	1.0056	-0.60077	8.6643e+005
238	-5.4273	-0.14893	0.44889	6.9191e+005
239	-4.8035	0.35735	-0.58777	8.8625e+005
240	4.5304	5.4044	8.7906	3.8644e+005
241	4.541	5.4164	1.2362	3.0502e+005
242	5.0859	4.3862	8.4524	2.0233e+005
243	5.1115	4.3904	1.404	8.9639e+005
244	5.4187	5.4569	9.0479	8.8212e+005
245	5.4754	5.3976	0.90384	8.5984e+005
246	5.6177	4.9496	8.9859	7.1223e+005
247	5.6115	4.8993	0.8966	4.5119e+005
248	5.0218	5.6194	0.96607	5.7235e+005
249	4.3857	4.9183	7.652	2.5782e+005
250	4.3819	4.9547	2.2888	8.9268e+005
251	4.7461	4.4346	7.8322	1.6667e+005
252	4.7369	4.4389	2.0706	1.1122e+006
253	4.983	5.6195	8.5035	6.4762e+005
254	5.6196	4.9881	8.0349	5.7066e+005
255	5.6076	4.8777	1.5371	2.875e+005
256	5.0933	5.6127	1.8438	4.9455e+005
257	4.6782	5.5297	7.807	4.6069e+005
258	4.692	5.5378	2.37	76620
259	5.3297	4.4752	7.4545	3.4795e+005
260	5.4312	4.5548	2.3001	2.8786e+005
261	5.3229	5.529	8.0652	6.856e+005
262	5.5575	5.2706	1.8943	6.0084e+005
263	4.5613	4.5623	6.5697	3.7293e+005
264	4.6319	5.4986	6.8332	3.8285e+005
265	4.4943	5.3583	3.3206	3.9523e+005
266	4.7925	4.416	3.3881	8.6738e+005
267	5.4919	5.377	7.0479	4.5045e+005
268	5.483	5.3883	2.8921	5.199e+005
269	5.5961	4.8304	7.1342	4.1426e+005
270	5.061	5.6168	7.4174	4.8386e+005
271	4.8911	5.6101	3.081	1.5634e+005
272	4.3925	4.8775	3.275	8.2946e+005
273	5.4387	4.5623	6.2818	3.6558e+005
274	5.5407	4.6971	3.428	1.388e+005
275	4.3987	5.1503	5.8378	4.2296e+005
276	5.0412	5.6184	4.1043	87813
277	4.3841	4.9312	4.3975	6.7847e+005
278	4.8452	4.3999	5.2128	5.726e+005
279	5.2888	4.4517	4.4571	4.2794e+005
280	5.0244	5.6193	5.6952	1.9157e+005
281	5.6088	5.1161	4.502	70206
282	5.6008	5.1522	6.0056	2.5042e+005
283	4.5511	5.4273	4.8511	3.6036e+005
284	5.5878	4.8035	5.3573	2.4334e+005
285	4.541	3.7638	10.416	11206
286	4.5304	-3.7906	10.404	11386
287	5.0859	-3.4524	9.3862	5512.5
288	5.1115	3.596	9.3904	6339.1
289	5.4187	-4.0479	10.457	24017
290	5.4754	4.0962	10.398	30169
291	5.6177	-3.9859	9.9496	11426
292	5.6115	4.1034	9.8993	18368
293	5.0218	4.0339	10.619	23437
294	4.3819	2.7112	9.9547	7153.5
295	4.3857	-2.652	9.9183	8033.5
296	4.7369	2.9294	9.4389	8412.4
297	4.7461	-2.8322	9.4346	8292.3
298	4.983	-3.5035	10.62	5350.2
299	5.6196	-3.0349	9.9881	8097.3
300	5.6076	3.4629	9.8777	7771.7
301	5.0933	3.1562	10.613	8613.4
302	4.692	2.63	10.538	8293.2
303	4.6782	-2.807	10.53	8341.
304	5.4312	2.6999	9.5548	7587.4
305	5.3299	-2.4547	9.4753	8175.4
306	5.3237	-3.0615	10.529	8420.6
307	5.5575	3.1057	10.271	7894.4
308	4.4927	1.6593	10.356	8077.
309	4.8031	1.6124	9.4124	8022.5
310	4.5613	-1.5697	9.5623	6555.8
311	4.6267	-1.754	10.495	8032.3
312	5.4808	-1.9732	10.391	7651.2
313	5.483	2.1079	10.388	7006.6
314	5.5961	-2.1342	9.8304	8078.4
315	4.8918	1.923	10.61	7987.6
316	4.394	1.7286	9.87	7727.5
317	5.07	-2.3571	10.616	8181.9
318	5.5407	1.572	9.6971	7639.
319	5.4714	-1.2127	9.5977	7810.3
320	5.0412	0.8957	10.618	7803.4
321	4.3992	0.63404	9.8478	7695.
322	4.3887	-0.62784	10.102	8141.7
323	5.3615	0.3889	9.4966	7802.8
324	4.8499	-0.21738	9.3987	8163.1
325	4.5382	0.49849	10.413	8039.6
326	4.9645	-0.64739	10.619	5953.3
327	5.6097	0.67745	10.111	7698.3
328	5.5618	-0.90699	10.262	8023.3
329	5.6183	-0.2907	9.9573	7732.8
330	5.4554	-0.10225	10.42	8171.2
331	5.3135	-4.4654	1.0464	5.7421e+005
332	4.4357	-5.2563	1.4001	6.1308e+005
333	4.541	-5.4164	8.7638	3.9973e+005
334	5.1115	-4.3904	8.596	1.9917e+005
335	5.4754	-5.3976	9.0962	8.8679e+005
336	5.4084	-5.4662	0.85233	8.147e+005
337	4.6661	-4.4779	1.7405	1.2132e+006
338	5.6115	-4.8993	9.1034	7.191e+005
339	5.0218	-5.6194	9.0339	7.4759e+005
340	4.9319	-5.616	0.955	4.5335e+005
341	5.6163	-4.9346	1.0215	4.7586e+005
342	5.3583	-4.4943	2.0445	4.1247e+005
343	4.3942	-4.869	2.7854	9.269e+005
344	4.3819	-4.9547	7.7112	2.5563e+005
345	4.7369	-4.4389	7.9294	1.5194e+005
346	5.6076	-4.8777	8.4629	5.8974e+005
347	5.0933	-5.6127	8.1562	6.4434e+005
348	4.9745	-5.6192	1.7964	4.3355e+005
349	5.594	-5.1766	1.8354	5.9201e+005
350	4.7727	-4.4234	2.7276	9.8117e+005
351	4.5926	-5.467	2.4325	2.0171e+005
352	4.6929	-5.5383	7.6258	4.4405e+005
353	5.4312	-4.5548	7.6999	3.8722e+005
354	5.5575	-5.2706	8.1057	6.5316e+005
355	5.4624	-4.5874	3.224	2.5331e+005
356	4.6849	-4.4663	4.0176	8.2491e+005
357	4.6908	-5.5371	3.5548	1.5487e+005
358	4.4905	-5.3529	6.5383	3.8188e+005
359	4.8005	-4.4132	6.683	3.5346e+005
360	5.483	-5.3883	7.1079	4.6529e+005
361	5.2431	-5.5701	2.6731	4.6946e+005
362	4.3836	-5.0643	3.8534	6.3305e+005
363	4.9063	-5.6126	6.8458	4.0732e+005
364	5.5407	-4.6971	6.572	3.5819e+005
365	5.576	-5.2288	2.8033	3.909e+005
366	5.4339	-4.5575	4.5086	3.3314e+005
367	4.3842	-5.0699	4.8727	5.5265e+005
368	5.4438	-5.4326	3.7647	2.8838e+005
369	5.0713	-5.6156	5.9429	2.5021e+005
370	4.397	-4.857	5.8644	4.6484e+005
371	5.2839	-4.4491	5.5039	4.2649e+005
372	5.6195	-5.0172	4.3769	72229
373	4.8438	-5.5998	4.688	1.2498e+005
374	5.616	-5.0677	5.6199	1.9357e+005
375	5.4117	-5.4633	4.8657	47622
376	4.6136	-4.5155	5.3593	5.8857e+005
377	4.6209	-5.4903	5.6471	3.359e+005
378	3.8489	5.3097	0.53684	2.4739e+005
379	3.6302	4.4193	-0.21648	2.0789e+005
380	-3.7638	5.4164	0.45904	2.1503e+005
381	-3.8976	4.4048	-0.17256	1.8397e+005
382	-4.0968	5.3976	-0.47539	2.2409e+005
383	4.0462	5.4562	-0.41946	2.1161e+005
384	3.6234	4.6104	0.48199	1.7791e+005
385	-4.1222	4.9008	-0.61176	2.6109e+005
386	-4.034	5.6194	-2.1838e-002	1.6548e+005
387	4.0931	5.6177	5.0049e-002	1.2038e+005
388	3.9949	4.9552	-0.61814	2.0798e+005
389	2.5761	5.0945	0.61251	4.5459e+005
390	2.4982	4.4446	0.27493	2.3928e+005
391	-2.7112	4.9547	0.6181	4.2673e+005
392	-3.0135	4.4395	0.26454	1.5074e+005
393	-3.4954	4.8827	-0.60856	1.0229e+005
394	-3.1562	5.6127	-9.33e-002	1.7266e+005
395	3.2962	5.6171	5.7423e-002	1.9853e+005
396	3.033	4.9897	-0.61967	3.2553e+005
397	2.482	4.4831	-0.34186	3.5355e+005
398	-2.6235	5.5381	0.30745	2.6932e+005
399	-2.6999	4.5548	-0.4312	3.5718e+005
400	-3.1074	5.2705	-0.55763	2.7968e+005
401	3.0345	5.5028	-0.3624	2.6668e+005
402	1.1836	4.7838	0.58083	8.4864e+005
403	2.0541	5.6169	5.9905e-002	1.1582e+005
404	1.3084	4.3899	-0.10881	1.9121e+005
405	-1.4569	5.37	0.49719	6.5984e+005
406	-1.6156	4.4201	0.21867	2.7908e+005
407	-2.1079	5.3883	-0.48302	5.6013e+005
408	2.2496	5.4135	-0.46165	4.6105e+005
409	1.8787	4.8788	-0.60778	7.2856e+005
410	1.5998	5.3317	0.52353	6.3376e+005
411	-1.8255	5.6119	9.8329e-002	1.4577e+005
412	-1.572	4.6971	-0.5407	7.9741e+005
413	1.4202e-002	4.4434	0.27256	3.9951e+005
414	0.37848	5.4863	0.38421	6.195e+005
415	0.68982	4.8489	-0.60105	9.6806e+005
416	-0.8957	5.6184	-4.1164e-002	1.2597e+005
417	-0.53769	4.85	0.60133	9.085e+005
418	-0.36776	4.4609	-0.3057	5.176e+005
419	1.164	5.5478	-0.28982	4.6063e+005
420	-0.61991	5.0677	-0.61604	9.5922e+005
421	8.5491e-002	5.558	-0.26963	4.6725e+005
422	-4.4655	-5.3137	1.0464	5.2239e+005
423	-5.2563	-4.4357	1.4001	6.3879e+005
424	-4.5304	-5.4044	8.7906	3.84e+005
425	-5.0859	-4.3862	8.4524	1.9119e+005
426	-5.4187	-5.4569	9.0479	8.5638e+005
427	-5.4662	-5.4084	0.85233	8.2283e+005
428	-4.4779	-4.6661	1.7405	1.2312e+006
429	-5.6177	-4.9496	8.9859	7.0995e+005
430	-5.616	-4.9319	0.955	4.6406e+005
431	-4.9346	-5.6163	1.0215	4.9186e+005
432	-4.5003	-5.3666	1.9645	4.1201e+005
433	-4.869	-4.3942	2.7854	9.3216e+005
434	-4.3857	-4.9183	7.652	2.4318e+005
435	-4.7461	-4.4346	7.8322	1.602e+005
436	-4.983	-5.6195	8.5035	7.04e+005
437	-5.6196	-4.9881	8.0349	5.7546e+005
438	-5.6192	-4.9745	1.7964	4.5297e+005
439	-5.1846	-5.5916	1.9377	5.6872e+005
440	-4.4234	-4.7727	2.7276	9.8736e+005
441	-5.467	-4.5926	2.4325	2.0068e+005
442	-4.6782	-5.5297	7.807	4.533e+005
443	-5.3328	-4.4771	7.4554	3.461e+005
444	-5.3238	-5.5284	8.0616	6.682e+005
445	-4.6138	-5.4847	3.1574	2.32e+005
446	-4.49	-4.6479	3.7688	8.7067e+005
447	-5.5371	-4.6908	3.5548	1.4391e+005
448	-4.5613	-4.5623	6.5697	3.8478e+005
449	-4.6267	-5.4947	6.754	3.7901e+005
450	-5.4883	-5.3816	7.046	4.3985e+005
451	-5.5539	-5.2781	2.7106	4.8781e+005
452	-4.9523	-4.3821	3.6911	7.11e+005
453	-4.381	-5.0303	6.7754	3.6096e+005
454	-5.07	-5.6158	7.3571	4.8149e+005
455	-5.4661	-4.5915	6.2986	3.5849e+005
456	-5.2207	-5.5791	2.8115	3.8657e+005
457	-4.495	-5.3592	4.1861	4.0528e+005
458	-4.7887	-4.4174	4.8354	6.4859e+005
459	-5.4064	-5.4679	3.8709	2.6915e+005
460	-4.3965	-5.141	5.5265	4.7599e+005
461	-5.0649	-4.3837	5.6113	4.7662e+005
462	-4.8277	-5.5953	3.9476	74442
463	-5.5367	-4.69	4.775	2.3393e+005
464	-5.0129	-5.6196	5.814	2.507e+005
465	-5.5601	-5.2653	6.1057	2.5464e+005
466	-4.9937	-5.6197	4.7675	84388
467	-5.5406	-5.303	5.1577	78354
468	-4.5304	3.7906	10.404	16984
469	-5.0859	3.4524	9.3862	14790
470	-4.541	-3.7638	10.416	11017
471	-5.1115	-3.596	9.3904	6910.8
472	-5.4754	-4.0962	10.398	33204
473	-5.4187	4.0479	10.457	23180
474	-5.6115	-4.1034	9.8993	17134
475	-5.0218	-4.0339	10.619	22769
476	-5.6177	3.9859	9.9496	26188
477	-4.3857	2.652	9.9183	7871.2
478	-4.3819	-2.7112	9.9547	7178.6
479	-4.7461	2.8322	9.4346	7314.7
480	-4.7369	-2.9294	9.4389	8508.7
481	-5.6076	-3.4629	9.8777	5820.5
482	-5.0933	-3.1562	10.613	7418.1
483	-4.983	3.5035	10.62	14909
484	-5.6196	3.0349	9.9881	8173.3
485	-4.6782	2.807	10.53	8277.1
486	-4.692	-2.63	10.538	8262.5
487	-5.3297	2.4545	9.4752	8234.5
488	-5.4312	-2.6999	9.5548	7550.7
489	-5.5575	-3.1057	10.271	7940.3
490	-5.3229	3.0652	10.529	8935.1
491	-4.5613	1.5697	9.5623	7456.5
492	-4.6319	1.8332	10.499	8176.3
493	-4.4943	-1.6794	10.358	7744.1
494	-4.7925	-1.6119	9.416	8008.3
495	-5.483	-2.1079	10.388	7474.4
496	-5.4919	2.0479	10.377	7070.8
497	-5.5961	2.1342	9.8304	7960.2
498	-5.061	2.4174	10.617	8131.5
499	-4.8911	-1.919	10.61	8102.3
500	-4.3925	-1.725	9.8775	8004.7
501	-5.4387	1.2818	9.5623	7881.5
502	-5.5407	-1.572	9.6971	8052.3
503	-4.3987	0.83781	10.15	8029.6
504	-5.0412	-0.8957	10.618	8135.6
505	-4.3841	-0.60248	9.9312	7895.5
506	-4.8452	0.21278	9.3999	8141.7
507	-5.2888	-0.54292	9.4517	8119.4
508	-5.0244	0.69525	10.619	7005.7
509	-5.6088	-0.49804	10.116	7153.
510	-5.6008	1.0056	10.152	7926.8
511	-4.5511	-0.14893	10.427	8055.5
512	-5.5878	0.35735	9.8035	7958.7
513	-3.8489	-4.4632	10.31	21189
514	-3.6302	-5.2165	9.4193	8868.3
515	3.9537	-4.4654	10.314	20381
516	3.6011	-5.2526	9.4341	6628.5
517	-4.0462	-5.4195	10.456	24323
518	4.1477	-5.4658	10.409	31879
519	-3.6234	-4.518	9.6104	9943.8
520	3.3424	-4.4765	9.6683	5949.1
521	-3.9949	-5.6181	9.9552	19484
522	4.0447	-5.6161	9.9329	41997
523	3.9785	-4.9346	10.616	12942
524	-2.5761	-4.3875	10.095	7785.1
525	-2.49	-4.7205	9.4468	8086.1
526	3.0365	-4.4965	10.361	7151.8
527	2.5244	-4.8307	9.4038	7873.3
528	-3.2962	-4.9426	10.617	10738
529	-3.033	-5.6197	9.9897	8238.7
530	3.1965	-5.6195	9.9829	7538.8
531	2.9729	-5.1444	10.603	7123.5
532	-2.482	-5.3419	9.4831	6217.7
533	2.1727	-4.4159	9.7928	8221.1
534	2.3884	-5.4212	9.5454	8026.1
535	-3.0345	-5.3624	10.503	7973.9
536	-1.0694	-4.4013	9.84	7189.3
537	-2.0541	-4.9401	10.617	7693.5
538	-1.2467	-5.1647	9.4025	7366.3
539	2.0017	-4.5725	10.449	8003.6
540	1.3488	-4.8816	9.3917	7527.5
541	-2.2496	-5.4616	10.413	7784.5
542	1.928	-5.5064	10.357	8049.
543	-1.8851	-5.607	9.875	7955.2
544	-1.5897	-4.4768	10.332	8148.6
545	0.91049	-4.3932	9.874	7815.8
546	1.45	-5.4943	9.6262	7976.5
547	2.0062	-5.0119	10.62	7618.2
548	-4.5626e-002	-4.7327	9.4408	8113.6
549	-0.90385	-4.6212	10.49	7632.6
550	-0.76405	-5.6046	9.8639	8058.4
551	0.55735	-4.692	10.538	6953.3
552	0.34069	-5.462	9.5869	7675.2
553	-1.0475	-5.2771	10.554	7637.5
554	0.96412	-5.6105	10.107	7018.5
555	0.91905	-5.4202	10.456	8099.
556	0.12291	-5.4975	10.37	7595.5
557	-4.4632	5.3097	1.1511	5.3021e+005
558	-5.2165	4.4193	1.3698	6.9218e+005
559	-4.541	5.4164	8.7638	4.0931e+005
560	-5.1115	4.3904	8.596	1.9685e+005
561	-5.4754	5.3976	9.0962	8.5018e+005
562	-5.4195	5.4562	0.95383	8.1477e+005
563	-4.518	4.6104	1.3766	1.3578e+006
564	-5.6115	4.8993	9.1034	7.1465e+005
565	-5.0218	5.6194	9.0339	7.5455e+005
566	-4.95	5.6177	0.90688	5.0145e+005
567	-5.6181	4.9552	1.0051	5.1855e+005
568	-4.3875	5.0945	2.4239	7.8471e+005
569	-4.7251	4.4446	2.5018	1.0286e+006
570	-4.3819	4.9547	7.7112	2.5791e+005
571	-4.7369	4.4389	7.9294	1.4278e+005
572	-5.6076	4.8777	8.4629	5.9142e+005
573	-5.0933	5.6127	8.1562	6.4239e+005
574	-4.9426	5.6171	1.7038	3.4571e+005
575	-5.6197	4.9897	1.967	3.5836e+005
576	-5.3419	4.4831	2.518	4.3032e+005
577	-4.6925	5.5381	7.6235	4.452e+005
578	-5.4312	4.5548	7.6999	3.8333e+005
579	-5.5575	5.2706	8.1057	6.5846e+005
580	-5.3624	5.5028	1.9655	6.8068e+005
581	-4.4192	4.7838	3.8164	8.2675e+005
582	-4.9401	5.6169	2.9459	1.8509e+005
583	-5.1088	4.3899	3.6916	6.365e+005
584	-4.5028	5.37	6.4569	3.8518e+005
585	-4.7821	4.4198	6.6103	3.9038e+005
586	-5.483	5.3883	7.1079	4.4789e+005
587	-5.4616	5.4135	2.7504	4.9839e+005
588	-5.6078	4.8788	3.1213	1.272e+005
589	-4.4765	5.3317	3.4002	4.0734e+005
590	-4.9017	5.6119	6.8255	4.0536e+005
591	-5.5407	4.6971	6.572	3.5793e+005
592	-4.7277	4.4433	4.9853	6.4612e+005
593	-4.6158	5.4863	4.6215	2.936e+005
594	-5.601	4.8489	4.3102	92056
595	-5.0412	5.6184	5.8957	2.4574e+005
596	-4.3987	4.8498	5.5371	5.2927e+005
597	-5.3057	4.4609	5.3678	4.1205e+005
598	-5.2898	5.5478	3.836	2.5099e+005
599	-5.616	5.0677	5.6199	2.1357e+005
600	-5.2696	5.558	4.9145	69636
601	-3.8489	5.3097	9.4632	17186
602	-3.6302	4.4193	10.216	11049
603	3.9537	5.3135	9.4654	10955
604	3.6011	4.4341	10.253	8982.1
605	-4.0462	5.4562	10.419	31829
606	4.1477	5.4088	10.466	27226
607	-3.6234	4.6104	9.518	11063
608	3.3424	4.6683	9.4765	6225.
609	-3.9949	4.9552	10.618	22906
610	4.0447	4.9329	10.616	13680
611	3.9785	5.6163	9.9346	25694
612	-2.5761	5.0945	9.3875	7861.4
613	-2.49	4.4468	9.7205	8146.2
614	3.0365	5.3614	9.4965	7231.1
615	2.5244	4.4038	9.8307	7916.9
616	-3.2962	5.6171	9.9426	10184
617	-3.033	4.9897	10.62	8465.
618	3.1965	4.9829	10.62	8649.2
619	2.9729	5.6027	10.144	7710.6
620	-2.482	4.4831	10.342	6314.1
621	2.1727	4.7928	9.4159	8059.7
622	2.3884	4.5454	10.421	8143.8
623	-3.0345	5.5028	10.362	8016.6
624	-1.0694	4.84	9.4013	7227.3
625	-2.0541	5.6169	9.9401	7650.2
626	-1.2467	4.4025	10.165	7321.9
627	2.0017	5.4487	9.5725	8026.5
628	1.3488	4.3917	9.8816	7482.5
629	-2.2496	5.4135	10.462	7738.5
630	1.928	5.3572	10.506	8001.3
631	-1.8851	4.875	10.607	8048.7
632	-1.5897	5.3322	9.4768	8132.7
633	0.91049	4.874	9.3932	7987.9
634	1.45	4.6262	10.494	8011.7
635	2.0062	5.6196	10.012	7606.4
636	-4.5626e-002	4.4408	9.7327	8075.6
637	-0.90385	5.4905	9.6212	7539.2
638	-0.76405	4.8639	10.605	7984.3
639	0.55735	5.5378	9.692	7013.
640	0.34069	4.5869	10.462	7656.7
641	-1.0475	5.5544	10.277	7694.5
642	0.96412	5.1068	10.61	6995.9
643	0.91905	5.4556	10.42	8145.7
644	0.12291	5.3696	10.497	7598.8
645	4.8839	-4.6757	-2.8387e-002	3.2836e+005
646	4.2789	-5.01	-3.8411e-002	2.8528e+005
647	5.0534	4.2511	9.1336e-002	2.8932e+005
648	4.5423	5.0123	2.3891e-002	3.2308e+005
649	5.0343	5.0266	0.77213	97717
650	-4.7197	-4.9156	2.5788e-002	3.7318e+005
651	-5.0134	-4.245	-6.8781e-002	2.6902e+005
652	5.0304	-4.9519	9.1069	4.2487e+005
653	5.0466	-4.2096	9.9704	47054
654	-3.6197	5.0172	-6.0081e-002	2.663e+005
655	5.0295	4.9568	9.2649	3.9401e+005
656	-4.5177	4.9868	-3.2245e-002	2.9521e+005
657	5.0303	4.1069	9.952	36657
658	-4.9086	4.2511	-5.3428e-002	2.9247e+005
659	-5.004	-4.9783	9.1711	4.1034e+005
660	-5.0467	-4.2373	10.015	54941
661	-4.9337	4.8633	9.9473	2.4811e+005
662	-4.9573	4.9705	0.58451	2.1747e+005
663	5.069	-4.9426	10.001	2.4154e+005
664	5.0689	5.0007	9.9425	2.5377e+005
665	-5.071	5.0828	8.5897	4.8214e+005
666	5.0673	-2.7353	1.5273e-002	2.0216e+005
667	4.844	-2.0563	0.10113	1.8316e+005
668	4.9312	-4.9252	0.52913	2.96e+005
669	2.0546	-5.0156	0.10329	1.7609e+005
670	4.9196	-4.9467	1.2376	3.9141e+005
671	4.8967	5.0156	2.9454	3.3529e+005
672	4.9889	1.9113	6.328e-002	1.3592e+005
673	5.0228	2.6802	-8.8457e-002	2.1612e+005
674	-2.6842	-5.0833	2.0442e-003	2.0995e+005
675	-5.0156	-2.0546	0.10329	1.7602e+005
676	-5.0188	-5.0816	0.89631	59889
677	5.0196	-3.1795	10.019	2168.3
678	3.9507	-4.9726	10.037	17274
679	4.998	5.0833	7.6842	4.1507e+005
680	5.0848	-2.3838	10.037	1114.2
681	1.473	-5.035	10.164	2281.8
682	3.9543	4.9523	9.9283	18354
683	-5.0313	5.0173	9.3528	4.001e+005
684	-5.0833	2.6842	2.0442e-003	2.0929e+005
685	-4.9718	-5.3075	9.9718	3.1182e+005
686	-5.0101	-5.0229	8.1779	4.2691e+005
687	-4.9827	-5.1328	7.4225	3.9436e+005
688	4.8931	2.1904	9.8473	2271.1
689	1.473	5.1641	10.035	2315.7
690	-4.8967	-2.0546	10.016	1122.
691	-4.972	3.1919	10.008	3469.4
692	-5.0756	2.3832	10.083	1469.
693	-5.	-5.2372	10.573	93157
694	-5.3099	-5.	10.31	2.2371e+005
695	-5.2372	-5.	10.573	1.0868e+005
696	-4.7038	-4.7038	10.544	64752
697	-5.2624	-4.5481	10.561	54400
698	-5.0109	-4.517	10.62	53119
699	-4.4245	-4.69	10.537	51080
700	-4.5231	-5.2251	10.577	45594
701	-4.1481	-4.9713	10.619	49546
702	-5.0233	-4.6187	10.318	56343
703	-4.9859	-5.1537	10.296	1.9592e+005
704	-5.	-5.5726	10.237	3.1349e+005
705	-5.2372	-5.5726	10.	5.6886e+005
706	-4.7038	-5.5444	9.7038	4.5748e+005
707	-5.2246	-5.5776	9.524	6.3144e+005
708	-4.9915	-5.6197	9.2517	5.5902e+005
709	-4.5231	-5.5675	10.249	2.5741e+005
710	-4.4974	-5.6194	9.9776	2.6e+005
711	-4.9859	-5.4636	9.9859	3.7503e+005
712	-5.253	-5.253	10.506	1.1646e+005
713	-5.253	-5.506	10.253	3.9444e+005
714	-4.5231	-5.4289	10.447	59317
715	-4.9859	-5.3729	10.205	2.0582e+005
716	-5.5726	-5.	10.237	2.7288e+005
717	-5.5726	-5.2372	10.	4.8993e+005
718	-5.5444	-4.7038	9.7038	3.7765e+005
719	-5.5673	-5.2496	9.524	5.886e+005
720	-5.6192	-4.9748	9.493	5.1798e+005
721	-5.5826	-4.5481	10.211	2.1211e+005
722	-5.6177	-4.5517	9.9495	1.9836e+005
723	-5.3119	-4.9892	9.5855	3.7694e+005
724	-5.3332	-4.6187	10.008	2.1444e+005
725	-5.2958	-5.1537	9.9859	2.741e+005
726	-5.506	-5.253	10.253	4.1286e+005
727	-5.4573	-4.5481	10.418	92490
728	-5.205	-5.1537	10.205	1.8497e+005
729	-5.4286	-5.4477	9.524	7.014e+005
730	-5.205	-5.3729	9.9859	4.1483e+005
731	-5.	5.5726	10.237	2.8661e+005
732	-5.2372	5.5726	10.	4.6967e+005
733	-4.7038	5.5444	9.7038	3.8822e+005
734	-5.2624	5.5615	9.5481	6.0008e+005
735	-5.0109	5.6197	9.517	5.5246e+005
736	-4.4245	5.5367	9.69	1.9654e+005
737	-4.5231	5.5774	10.225	2.1182e+005
738	-4.1481	5.6191	9.9713	2.0182e+005
739	-4.9668	5.2415	9.9737	2.61e+005
740	-5.0157	5.3185	9.6764	3.8083e+005
741	-5.	5.2372	10.573	1.1498e+005
742	-5.2372	5.	10.573	1.1132e+005
743	-4.7038	4.7038	10.544	56777
744	-5.2246	4.524	10.578	44892
745	-4.9915	4.2517	10.62	47297
746	-4.5231	5.2491	10.567	46183
747	-4.4974	4.9776	10.619	50587
748	-4.9668	4.9317	10.284	1.5969e+005
749	-5.253	5.506	10.253	3.7539e+005
750	-5.253	5.253	10.506	1.5163e+005
751	-4.5231	5.4473	10.429	1.0021e+005
752	-4.9668	5.1508	10.193	1.6685e+005
753	-5.5726	5.2372	10.	5.0126e+005
754	-5.5726	5.	10.237	3.1702e+005
755	-5.5444	4.7038	9.7038	4.312e+005
756	-5.5673	4.524	10.25	2.4057e+005
757	-5.6192	4.493	9.9748	2.4059e+005
758	-5.5826	5.2115	9.5481	6.2569e+005
759	-5.6177	4.9495	9.5517	5.6053e+005
760	-5.2767	4.9317	9.9737	3.0038e+005
761	-5.3255	5.0087	9.6764	4.1222e+005
762	-5.506	5.253	10.253	3.719e+005
763	-5.4573	5.4183	9.5481	6.8601e+005
764	-5.186	5.1508	9.9737	3.1242e+005
765	-5.2348	5.2278	9.6764	4.8233e+005
766	-5.4286	4.524	10.448	91056
767	-5.186	4.9317	10.193	1.7213e+005
768	5.	-5.5726	10.237	3.0795e+005
769	5.2372	-5.5726	10.	4.924e+005
770	4.7038	-5.5444	9.7038	3.8653e+005
771	5.2624	-5.5615	9.5481	6.4016e+005
772	5.0109	-5.6197	9.517	5.7279e+005
773	4.5738	-5.58	10.218	2.4154e+005
774	4.5224	-5.6188	9.9664	2.3814e+005
775	5.0152	-5.2858	9.5535	4.1967e+005
776	5.0345	-5.2812	10.	3.0081e+005
777	5.	-5.2372	10.573	1.1199e+005
778	5.2372	-5.	10.573	1.1008e+005
779	4.7038	-4.7038	10.544	63534
780	5.2246	-4.524	10.578	56049
781	4.9915	-4.2517	10.62	51982
782	4.5738	-5.2557	10.565	57991
783	4.4893	-4.9672	10.619	50674
784	5.0233	-4.6048	10.295	60781
785	5.0345	-4.9713	10.31	1.6612e+005
786	5.253	-5.506	10.253	3.6568e+005
787	5.253	-5.253	10.506	1.29e+005
788	4.5738	-5.4523	10.424	84765
789	5.0345	-5.1904	10.219	1.6604e+005
790	5.5726	-5.2372	10.	4.6909e+005
791	5.5726	-5.	10.237	2.8377e+005
792	5.5444	-4.7038	9.7038	3.8794e+005
793	5.5673	-4.524	10.25	2.1778e+005
794	5.6192	-4.493	9.9748	2.1319e+005
795	5.5826	-5.2115	9.5481	6.1264e+005
796	5.6177	-4.9495	9.5517	5.2806e+005
797	5.3251	-4.9759	9.5535	3.9526e+005
798	5.3332	-4.6048	9.9852	2.2345e+005
799	5.3444	-4.9713	10.	2.7228e+005
800	5.506	-5.253	10.253	3.6371e+005
801	5.4573	-5.4183	9.5481	6.9118e+005
802	5.2536	-5.1904	10.	3.1547e+005
803	5.4286	-4.524	10.448	79446
804	5.2536	-4.9713	10.219	1.6401e+005
805	5.	5.2372	10.573	1.0989e+005
806	5.2372	5.	10.573	1.0997e+005
807	4.7038	4.7038	10.544	62611
808	5.2624	4.5481	10.561	58284
809	5.0109	4.517	10.62	58772
810	4.5738	5.2184	10.58	55122
811	4.5224	4.9664	10.619	48778
812	5.0151	4.5535	10.286	55427
813	5.0345	5.0004	10.281	1.7226e+005
814	5.	5.5726	10.237	3.0957e+005
815	5.2372	5.5726	10.	5.0259e+005
816	4.7038	5.5444	9.7038	3.8188e+005
817	5.2246	5.5776	9.524	6.4378e+005
818	4.9915	5.6197	9.2517	5.3006e+005
819	4.5738	5.5646	10.256	2.4068e+005
820	4.4893	5.6189	9.9672	2.3962e+005
821	5.0148	5.2883	9.6324	4.0924e+005
822	5.0345	5.3102	9.9713	3.152e+005
823	5.253	5.253	10.506	1.2702e+005
824	5.253	5.506	10.253	3.7226e+005
825	4.5738	5.4237	10.452	77780
826	5.0345	5.2195	10.19	1.7496e+005
827	5.5726	5.	10.237	2.8353e+005
828	5.5726	5.2372	10.	4.7844e+005
829	5.5444	4.7038	9.7038	3.8201e+005
830	5.5673	5.2496	9.524	6.1037e+005
831	5.6192	4.9748	9.493	5.2614e+005
832	5.5826	4.5481	10.211	2.2194e+005
833	5.6177	4.5517	9.9495	2.1461e+005
834	5.3246	4.9784	9.6324	3.817e+005
835	5.325	4.5535	9.976	2.1767e+005
836	5.3443	5.0004	9.9713	2.745e+005
837	5.506	5.253	10.253	3.7088e+005
838	5.4573	4.5481	10.418	83676
839	5.2536	5.0004	10.19	1.6994e+005
840	5.4286	5.4477	9.524	6.9443e+005
841	5.2536	5.2195	9.9713	3.3687e+005
842	-5.5726	-5.2372	0.	3.0643e+005
843	-5.5726	-5.	-0.23717	2.1488e+005
844	-5.5444	-4.7038	0.29618	1.3634e+005
845	-5.5615	-4.5481	-0.26239	1.7124e+005
846	-5.6197	-4.517	-1.0914e-002	1.2468e+005
847	-5.5801	-5.2181	0.42617	5.1939e+005
848	-5.6188	-4.9659	0.4775	3.548e+005
849	-5.1697	-4.9578	1.2894e-002	2.9059e+005
850	-5.3166	-4.6225	-3.439e-002	1.2215e+005
851	-5.3193	-5.0408	0.44815	1.8691e+005
852	-5.2372	-5.5726	0.	3.055e+005
853	-5.	-5.5726	-0.23717	2.0109e+005
854	-4.7038	-5.5444	0.29618	1.2112e+005
855	-4.524	-5.5776	-0.22464	1.4826e+005
856	-4.2517	-5.6197	8.4995e-003	1.1954e+005
857	-5.2559	-5.5644	0.42617	5.2614e+005
858	-4.9673	-5.6189	0.51074	3.6655e+005
859	-4.8598	-5.2677	1.2894e-002	2.6813e+005
860	-5.0094	-5.3507	0.44815	1.8518e+005
861	-5.506	-5.253	-0.25301	1.8512e+005
862	-5.253	-5.506	-0.25301	1.8618e+005
863	-5.4525	-5.4235	0.42617	5.6117e+005
864	-5.079	-5.1769	1.2894e-002	2.1859e+005
865	-5.2285	-5.2599	0.44815	1.8504e+005
866	-5.2372	-5.	-0.57258	1.4288e+005
867	-5.	-5.2372	-0.57258	1.2784e+005
868	-4.7038	-4.7038	-0.5444	2.3351e+005
869	-4.524	-5.2496	-0.56728	1.7059e+005
870	-4.493	-4.9748	-0.61924	1.7518e+005
871	-5.2115	-4.5481	-0.58256	1.8735e+005
872	-4.9495	-4.5517	-0.61769	2.0547e+005
873	-4.8598	-4.9578	-0.29698	2.5804e+005
874	-5.0067	-4.6225	-0.34427	1.8864e+005
875	-5.253	-5.253	-0.50603	1.075e+005
876	-5.4183	-4.5481	-0.45728	1.4905e+005
877	-5.079	-4.9578	-0.20622	2.5084e+005
878	-5.2258	-4.6225	-0.25351	1.3802e+005
879	-4.524	-5.4477	-0.42858	1.2756e+005
880	-4.8598	-5.1769	-0.20622	2.3435e+005
881	5.2372	-5.5726	0.	3.0326e+005
882	5.	-5.5726	-0.23717	2.1762e+005
883	4.7038	-5.5444	0.29618	1.3359e+005
884	4.5481	-5.5615	-0.26239	1.7088e+005
885	4.517	-5.6197	-1.0914e-002	1.2271e+005
886	5.2181	-5.5801	0.42617	5.1298e+005
887	4.9659	-5.6188	0.4775	3.4302e+005
888	4.9419	-5.1477	-1.4194e-002	2.6366e+005
889	4.6395	-5.3149	-1.9205e-002	1.2578e+005
890	4.9656	-5.2725	0.26457	2.815e+005
891	5.5726	-5.2372	0.	2.981e+005
892	5.5726	-5.	-0.23717	1.9858e+005
893	5.5444	-4.7038	0.29618	1.369e+005
894	5.5776	-4.524	-0.22464	1.4603e+005
895	5.6197	-4.2517	8.4995e-003	1.1549e+005
896	5.5644	-5.2559	0.42617	5.1714e+005
897	5.6189	-4.9673	0.51074	3.4966e+005
898	5.2518	-4.8379	-1.4194e-002	2.3457e+005
899	5.2755	-4.9626	0.26457	2.6657e+005
900	5.253	-5.506	-0.25301	1.8249e+005
901	5.506	-5.253	-0.25301	1.8265e+005
902	5.4235	-5.4525	0.42617	5.4692e+005
903	5.161	-5.057	-1.4194e-002	1.9518e+005
904	5.1847	-5.1817	0.26457	2.3368e+005
905	5.	-5.2372	-0.57258	1.4748e+005
906	5.2372	-5.	-0.57258	1.3063e+005
907	4.7038	-4.7038	-0.5444	2.2903e+005
908	5.2496	-4.524	-0.56728	1.7289e+005
909	4.9748	-4.493	-0.61924	1.7613e+005
910	4.5481	-5.2115	-0.58256	1.8649e+005
911	4.5517	-4.9495	-0.61769	2.0385e+005
912	4.9419	-4.8379	-0.32407	2.3698e+005
913	4.6395	-5.005	-0.32908	1.9524e+005
914	5.253	-5.253	-0.50603	1.1553e+005
915	4.5481	-5.4183	-0.45728	1.5088e+005
916	4.9419	-5.057	-0.23331	2.3216e+005
917	4.6395	-5.2241	-0.23832	1.5219e+005
918	5.4477	-4.524	-0.42858	1.3421e+005
919	5.161	-4.8379	-0.23331	2.1459e+005
920	-5.2372	5.5726	0.	2.9553e+005
921	-5.	5.5726	-0.23717	1.838e+005
922	-4.7038	5.5444	0.29618	1.3368e+005
923	-4.5484	5.5615	-0.26237	1.4765e+005
924	-4.517	5.6197	-1.092e-002	1.1134e+005
925	-5.2251	5.5774	0.47691	5.0486e+005
926	-4.975	5.6193	0.45344	3.6242e+005
927	-4.7589	5.3033	-1.6122e-002	1.8234e+005
928	-4.9786	5.2951	0.29226	2.3607e+005
929	-5.5726	5.2372	0.	3.1504e+005
930	-5.5726	5.	-0.23717	2.2784e+005
931	-5.5444	4.7038	0.29618	1.6322e+005
932	-5.5776	4.524	-0.22464	1.6356e+005
933	-5.6197	4.2517	8.4995e-003	1.2318e+005
934	-5.5675	5.2491	0.47691	5.1142e+005
935	-5.6194	4.9776	0.50256	3.7448e+005
936	-5.0687	4.9934	-1.6122e-002	2.4156e+005
937	-5.2642	4.6256	-2.6714e-002	1.3699e+005
938	-5.2885	4.9852	0.29226	2.6492e+005
939	-5.253	5.506	-0.25301	1.8865e+005
940	-5.506	5.253	-0.25301	1.9146e+005
941	-5.4289	5.4473	0.47691	5.4857e+005
942	-4.978	5.2125	-1.6122e-002	1.6967e+005
943	-5.1977	5.2044	0.29226	2.3291e+005
944	-5.	5.2372	-0.57258	1.2046e+005
945	-5.2372	5.	-0.57258	1.5416e+005
946	-4.7038	4.7038	-0.5444	2.2372e+005
947	-5.2496	4.524	-0.56728	1.7627e+005
948	-4.9748	4.493	-0.61924	1.8354e+005
949	-4.5484	5.2115	-0.58255	1.7339e+005
950	-4.5611	4.9502	-0.61775	1.9501e+005
951	-4.7589	4.9934	-0.326	2.1864e+005
952	-4.9543	4.6256	-0.33659	1.9936e+005
953	-5.253	5.253	-0.50603	1.2063e+005
954	-4.5484	5.4183	-0.45726	1.3278e+005
955	-4.7589	5.2125	-0.23524	1.8539e+005
956	-5.4477	4.524	-0.42858	1.4507e+005
957	-4.978	4.9934	-0.23524	2.208e+005
958	-5.1734	4.6256	-0.24583	1.6249e+005
959	5.	5.5726	-0.23717	1.9349e+005
960	5.2372	5.5726	0.	3.0906e+005
961	4.7038	5.5444	0.29618	1.2807e+005
962	5.2624	5.5615	0.45192	5.3778e+005
963	5.0109	5.6197	0.48303	4.0355e+005
964	4.5231	5.5774	-0.22511	1.2445e+005
965	4.5466	5.6193	2.5045e-002	1.212e+005
966	4.7711	5.3161	1.1946e-002	1.9576e+005
967	5.0172	5.3232	0.38607	2.0081e+005
968	5.	5.2372	-0.57258	1.2931e+005
969	5.2372	5.	-0.57258	1.6954e+005
970	4.7038	4.7038	-0.5444	2.3607e+005
971	5.2246	4.524	-0.57761	1.7857e+005
972	4.9915	4.2517	-0.6197	83884
973	4.5231	5.2491	-0.56748	1.6182e+005
974	4.4974	4.9776	-0.61935	1.6809e+005
975	5.0267	4.6256	-0.26421	1.9485e+005
976	4.7711	5.0062	-0.29793	2.4444e+005
977	5.253	5.506	-0.25301	1.9668e+005
978	5.253	5.253	-0.50603	1.2568e+005
979	4.5231	5.4473	-0.42894	1.1464e+005
980	4.7711	5.2253	-0.20717	1.9829e+005
981	5.5726	5.2372	0.	3.3453e+005
982	5.5726	5.	-0.23717	2.5283e+005
983	5.0908	4.7809	0.21912	2.4119e+005
984	5.5444	4.7038	0.29618	1.6443e+005
985	5.5673	4.524	-0.24959	1.7047e+005
986	5.6192	4.493	2.5207e-002	1.4382e+005
987	5.5826	5.2115	0.45192	5.4274e+005
988	5.6177	4.9495	0.4483	3.6425e+005
989	5.3366	4.6256	4.5668e-002	1.4635e+005
990	5.081	5.0062	1.1946e-002	2.7358e+005
991	5.327	5.0133	0.38607	2.3554e+005
992	5.506	5.253	-0.25301	1.9928e+005
993	5.4573	5.4183	0.45192	5.7825e+005
994	4.9902	5.2253	1.1946e-002	1.7919e+005
995	5.2363	5.2324	0.38607	2.0857e+005
996	5.4286	4.524	-0.44768	1.3787e+005
997	5.2458	4.6256	-0.17345	1.5219e+005
998	4.9902	5.0062	-0.20717	2.3563e+005
999	-4.4483	4.7176	9.4483	1.0257e+005
1000	-4.4483	4.4483	9.7176	92535
1001	-4.709	4.4528	9.4528	92180
1002	-4.8032	4.0071	9.4123	85796
1003	-4.8155	4.4083	9.0789	30883
1004	-4.7477	4.7125	9.7545	1.1744e+005
1005	-4.7965	4.7895	9.4573	1.2905e+005
1006	-4.3896	5.1073	9.3896	2.4494e+005
1007	-4.4966	5.3615	9.1113	3.7727e+005
1008	-4.6956	5.5399	9.2464	5.4924e+005
1009	-4.1538	5.3058	9.461	2.0563e+005
1010	-4.2525	5.3791	9.9391	2.1767e+005
1011	-4.6962	5.0826	9.7031	2.9128e+005
1012	-4.745	5.1596	9.4058	3.8662e+005
1013	-4.3882	4.5618	9.5618	49415
1014	-4.4058	5.176	9.076	2.0702e+005
1015	-4.6427	4.4936	8.9921	1.0468e+005
1016	-4.3845	4.9277	8.5497	1.435e+005
1017	-4.5053	4.6266	8.6588	85301
1018	-4.1186	5.1117	9.3904	50689
1019	-4.2172	5.1785	9.9039	57285
1020	-4.0058	4.7471	9.4342	46015
1021	-4.1916	4.928	10.003	52209
1022	-4.661	4.8821	9.6678	1.2225e+005
1023	-4.7296	4.9918	8.989	2.5401e+005
1024	-4.7098	4.959	9.3705	2.1456e+005
1025	-4.3896	4.3896	10.107	37262
1026	-4.492	4.1247	10.355	30707
1027	-4.9388	4.2534	10.379	20597
1028	-4.6789	3.9811	10.53	28007
1029	-4.0445	4.4374	10.26	27493
1030	-4.2525	4.9575	10.361	19725
1031	-4.2268	4.6671	10.523	31404
1032	-4.6962	4.6611	10.125	1.4513e+005
1033	-4.6445	4.3882	9.6445	63013
1034	-4.4035	4.0894	10.168	23955
1035	-4.6321	3.9203	9.5012	20791
1036	-4.9035	4.2181	10.179	17700
1037	-5.003	4.1871	9.9252	11878
1038	-4.3869	3.5201	9.9095	20555
1039	-4.5084	3.6102	9.6226	20720
1040	-4.0092	4.3832	10.061	20836
1041	-4.2172	4.9222	10.16	16467
1042	-4.0058	4.464	9.6889	21706
1043	-4.1916	4.6717	10.259	23327
1044	-4.661	4.6258	9.9241	1.3385e+005
1045	-4.6801	3.7901	9.9544	18289
1046	4.4483	4.7176	9.4483	91662
1047	4.4483	4.4483	9.7176	78509
1048	4.709	4.4528	9.4528	97675
1049	4.8032	4.4123	9.0071	42964
1050	4.8155	4.0789	9.4083	67246
1051	4.7956	4.7593	9.4133	1.3702e+005
1052	4.796	4.3344	9.7569	72097
1053	4.8153	4.7812	9.7522	1.0135e+005
1054	4.3896	5.1073	9.3896	1.8903e+005
1055	4.492	5.355	9.1247	3.335e+005
1056	4.6789	5.5301	8.9811	4.5719e+005
1057	4.2062	5.3077	9.462	1.5734e+005
1058	4.2187	5.5171	9.6584	1.6578e+005
1059	4.7441	5.1294	9.3618	3.3768e+005
1060	4.7638	5.1513	9.7007	2.5324e+005
1061	4.2065	5.1271	9.6935	1.5273e+005
1062	4.3882	4.5618	9.5618	52123
1063	4.4035	5.1684	9.0894	1.9759e+005
1064	4.6321	4.5012	8.9203	1.0841e+005
1065	4.3869	4.9095	8.5201	1.3434e+005
1066	4.5084	4.6226	8.6102	89848
1067	4.171	5.1139	9.3908	53309
1068	3.8653	4.7801	9.4206	49621
1069	4.7089	4.9288	9.3266	2.0195e+005
1070	4.7286	4.9507	9.6654	1.2137e+005
1071	4.1713	4.9266	9.6583	49516
1072	4.3896	4.3896	10.107	35236
1073	4.4966	4.1113	10.362	27570
1074	4.6956	4.2464	10.54	28757
1075	4.03	4.4459	10.278	25652
1076	4.2518	4.6577	10.517	26623
1077	4.7445	4.2829	10.127	34549
1078	4.7638	4.7297	10.122	1.4489e+005
1079	4.2065	4.7055	10.115	21592
1080	4.4058	4.076	10.176	18861
1081	4.6427	3.9921	9.4936	14421
1082	4.3845	3.5497	9.9277	17758
1083	4.5053	3.6588	9.6266	18509
1084	3.9947	4.3854	10.08	17052
1085	3.8653	4.4828	9.6586	16873
1086	4.7092	4.2476	9.9264	29196
1087	4.7286	4.6945	9.9217	1.3258e+005
1088	4.1713	4.6703	9.9145	18248
1089	-4.4483	4.7176	0.55168	6.0143e+005
1090	-4.7176	4.4483	0.55168	6.1958e+005
1091	-4.4528	4.4528	0.291	3.2605e+005
1092	-4.4123	4.0071	0.19684	2.8342e+005
1093	-4.2297	4.3998	0.1543	3.0194e+005
1094	-4.5397	4.7743	0.20299	3.2691e+005
1095	-4.7352	4.4065	0.1924	3.6256e+005
1096	-4.7595	4.7661	0.51137	2.0296e+005
1097	-4.3896	5.1073	0.61039	5.8001e+005
1098	-4.1113	5.3615	0.5034	2.3474e+005
1099	-4.2464	5.5399	0.30435	2.462e+005
1100	-4.461	5.3058	0.84615	4.0868e+005
1101	-4.6648	5.5213	0.72405	2.2372e+005
1102	-4.4883	5.1444	0.25449	3.2145e+005
1103	-4.708	5.1362	0.56287	2.2858e+005
1104	-4.5618	4.5618	0.61176	6.3593e+005
1105	-4.076	5.176	0.59424	4.2327e+005
1106	-4.1429	4.4762	0.33126	4.2539e+005
1107	-3.5497	4.9277	0.61552	4.9386e+005
1108	-3.7009	4.6273	0.49514	3.8836e+005
1109	-4.3904	5.1117	0.88142	5.9708e+005
1110	-4.4342	4.7471	0.9942	9.9891e+005
1111	-4.004	4.959	0.27584	4.6978e+005
1112	-4.453	4.9438	0.28976	4.7824e+005
1113	-4.6727	4.9356	0.59814	3.7524e+005
1114	-5.1073	4.3896	0.61039	5.9754e+005
1115	-5.355	4.1247	0.508	2.3922e+005
1116	-5.5301	3.9811	0.32112	2.608e+005
1117	-5.26	4.4374	0.95552	4.9108e+005
1118	-5.5227	4.6671	0.77317	2.2795e+005
1119	-5.1053	4.355	0.2439	3.2896e+005
1120	-5.1296	4.7146	0.56287	2.2477e+005
1121	-5.1684	4.0894	0.59645	4.521e+005
1122	-4.5012	3.9203	0.36788	4.5024e+005
1123	-4.9095	3.5201	0.61312	5.1314e+005
1124	-4.6226	3.6102	0.4916	4.1955e+005
1125	-5.0606	4.3832	0.99078	7.0556e+005
1126	-4.6889	4.464	0.9942	1.0291e+006
1127	-4.9047	4.3197	0.27917	5.3222e+005
1128	-4.929	4.6794	0.59814	3.9968e+005
1129	-5.1126	4.3906	9.3906	2.8334e+005
1130	-5.1973	3.9556	9.4125	2.1771e+005
1131	-5.5212	4.2223	9.6647	2.2786e+005
1132	-5.2096	4.4167	9.0274	3.0109e+005
1133	-5.5071	4.6437	9.2811	5.3949e+005
1134	-5.1178	4.6611	9.7031	3.0755e+005
1135	-5.1666	4.738	9.4058	3.9709e+005
1136	-4.9932	3.9203	9.3803	65556
1137	-5.2592	4.1871	9.6689	74002
1138	-5.0062	4.3803	8.9921	1.3896e+005
1139	-4.9172	4.6258	9.6678	1.5148e+005
1140	-4.966	4.7028	9.3705	2.3304e+005
1141	-4.4483	-4.4483	9.7176	90907
1142	-4.4483	-4.7176	9.4483	93746
1143	-4.709	-4.4528	9.4528	1.0002e+005
1144	-4.8032	-4.4123	9.0071	38421
1145	-4.8155	-4.0789	9.4083	73661
1146	-4.7829	-4.77	9.3664	1.3659e+005
1147	-4.8042	-4.3996	9.7886	82238
1148	-4.7668	-4.9346	9.7668	1.3089e+005
1149	-4.3896	-4.3896	10.107	43316
1150	-4.4966	-4.1113	10.362	31209
1151	-4.6956	-4.2464	10.54	33321
1152	-4.1538	-4.461	10.306	35809
1153	-4.2525	-4.9391	10.379	26532
1154	-4.7527	-4.3481	10.159	42625
1155	-4.7153	-4.8831	10.137	1.7483e+005
1156	-4.3882	-4.5618	9.5618	53927
1157	-4.4058	-4.076	10.176	24594
1158	-4.6427	-3.9921	9.4936	20401
1159	-4.3845	-3.5497	9.9277	24103
1160	-4.5053	-3.6588	9.6266	24811
1161	-4.1186	-4.3904	10.112	29596
1162	-4.2172	-4.9039	10.179	25635
1163	-4.0058	-4.4342	9.7471	25270
1164	-4.1916	-5.0032	9.928	17370
1165	-4.7175	-4.3128	9.9581	42811
1166	-4.68	-4.8479	9.9363	1.6199e+005
1167	-4.3896	-5.1073	9.3896	2.5625e+005
1168	-4.492	-5.355	9.1247	3.9685e+005
1169	-4.6789	-5.5301	8.9811	5.3765e+005
1170	-4.0445	-5.26	9.4374	2.2305e+005
1171	-4.2268	-5.5227	9.6671	2.282e+005
1172	-4.7314	-5.1401	9.3149	4.07e+005
1173	-4.7153	-5.3047	9.7153	3.6005e+005
1174	-4.4035	-5.1684	9.0894	2.0261e+005
1175	-4.6321	-4.5012	8.9203	1.041e+005
1176	-4.3869	-4.9095	8.5201	1.3331e+005
1177	-4.5084	-4.6226	8.6102	89796
1178	-4.0092	-5.0606	9.3832	54256
1179	-4.0058	-4.6889	9.464	50752
1180	-4.1916	-5.2595	9.6717	54082
1181	-4.6961	-4.9395	9.2797	2.1302e+005
1182	-4.68	-5.1041	9.68	1.6889e+005
1183	4.4483	-4.4483	9.7176	82961
1184	4.4483	-4.7176	9.4483	96504
1185	4.709	-4.4528	9.4528	97845
1186	4.8032	-4.0071	9.4123	69873
1187	4.8155	-4.4083	9.0789	40794
1188	4.7961	-4.7568	9.3344	1.4805e+005
1189	4.8042	-4.3857	9.7661	76582
1190	4.8154	-4.7522	9.7812	1.0578e+005
1191	4.3896	-4.3896	10.107	36480
1192	4.492	-4.1247	10.355	28236
1193	4.6789	-3.9811	10.53	23679
1194	4.2062	-4.462	10.308	32075
1195	4.2187	-4.6584	10.517	26897
1196	4.7527	-4.3342	10.136	39388
1197	4.7639	-4.7007	10.151	1.4009e+005
1198	4.2047	-4.7157	10.169	24008
1199	4.3882	-4.5618	9.5618	54897
1200	4.4035	-4.0894	10.168	19954
1201	4.6321	-3.9203	9.5012	14548
1202	4.3869	-3.5201	9.9095	19129
1203	4.5084	-3.6102	9.6226	19372
1204	4.171	-4.3908	10.114	23138
1205	3.8653	-4.4206	9.7801	17577
1206	4.7174	-4.2989	9.9356	32940
1207	4.7286	-4.6654	9.9507	1.277e+005
1208	4.1695	-4.6804	9.9688	19102
1209	4.3896	-5.1073	9.3896	1.9258e+005
1210	4.4966	-5.3615	9.1113	3.4888e+005
1211	4.6956	-5.5399	9.2464	5.1569e+005
1212	4.03	-5.2776	9.4459	1.6646e+005
1213	4.2518	-5.5166	9.6577	1.7662e+005
1214	4.7446	-5.1269	9.2829	3.6188e+005
1215	4.7639	-5.1223	9.7297	2.5041e+005
1216	4.2047	-5.1373	9.7478	1.6288e+005
1217	4.4058	-5.176	9.076	1.9941e+005
1218	4.6427	-4.4936	8.9921	1.0344e+005
1219	4.3845	-4.9277	8.5497	1.3231e+005
1220	4.5053	-4.6266	8.6588	85831
1221	3.9947	-5.0801	9.3854	55262
1222	3.8653	-4.6586	9.4828	51727
1223	4.7093	-4.9263	9.2476	2.1565e+005
1224	4.7286	-4.9217	9.6945	1.1012e+005
1225	4.1695	-4.9367	9.7125	52484
1226	-5.1126	-4.3906	9.3906	2.6123e+005
1227	-5.1973	-4.4125	8.9556	2.781e+005
1228	-5.5212	-4.6647	9.2223	5.1935e+005
1229	-5.2096	-4.0274	9.4167	1.915e+005
1230	-5.5071	-4.2811	9.6437	1.9638e+005
1231	-5.153	-4.7185	9.3149	3.7922e+005
1232	-5.1743	-4.3481	9.7371	1.9486e+005
1233	-5.1369	-4.8831	9.7153	2.8363e+005
1234	-4.9932	-4.3803	8.9203	1.5397e+005
1235	-5.0062	-3.9921	9.3803	82402
1236	-4.9524	-4.6833	9.2797	2.4653e+005
1237	-4.9737	-4.3128	9.7018	88716
1238	-4.9363	-4.8479	9.68	1.6263e+005
1239	-4.4483	-4.7176	0.55168	6.3718e+005
1240	-4.7176	-4.4483	0.55168	6.0894e+005
1241	-4.4528	-4.4528	0.291	3.5604e+005
1242	-4.0071	-4.4123	0.19684	2.9275e+005
1243	-4.4083	-4.0789	0.18447	3.2493e+005
1244	-4.6407	-4.7387	0.23201	2.7112e+005
1245	-4.7876	-4.4034	0.18473	3.4814e+005
1246	-4.3896	-5.1073	0.61039	6.0993e+005
1247	-4.1247	-5.355	0.508	2.7174e+005
1248	-4.2534	-5.3794	6.1246e-002	2.2493e+005
1249	-3.9811	-5.5301	0.32112	2.3546e+005
1250	-4.4621	-5.3079	0.79379	3.9321e+005
1251	-4.6584	-5.5171	0.78135	2.3209e+005
1252	-4.5892	-5.1088	0.28351	2.9255e+005
1253	-4.7388	-5.1918	0.71876	1.7879e+005
1254	-4.5618	-4.5618	0.61176	6.7243e+005
1255	-4.3882	-4.6445	0.35549	5.3258e+005
1256	-4.0894	-5.1684	0.59645	5.21e+005
1257	-3.9203	-4.5012	0.36788	4.7574e+005
1258	-3.5201	-4.9095	0.61312	5.483e+005
1259	-3.6102	-4.6226	0.4916	4.5151e+005
1260	-4.3908	-5.114	0.82906	6.5766e+005
1261	-4.421	-4.7788	1.1761	9.9811e+005
1262	-4.554	-4.9082	0.31877	5.0895e+005
1263	-4.7035	-4.9912	0.75403	4.3441e+005
1264	-5.1073	-4.3896	0.61039	5.5354e+005
1265	-5.3615	-4.1113	0.5034	2.2218e+005
1266	-5.5399	-4.2464	0.30436	2.1568e+005
1267	-5.2793	-4.4468	0.97065	4.5431e+005
1268	-5.5164	-4.6572	0.74811	1.8572e+005
1269	-5.0108	-4.6872	0.28351	2.8993e+005
1270	-5.1577	-4.3519	0.23622	3.0059e+005
1271	-5.1604	-4.7702	0.71876	1.7933e+005
1272	-5.176	-4.076	0.59424	4.1449e+005
1273	-4.4936	-3.9921	0.35734	4.1636e+005
1274	-4.9277	-3.5497	0.61552	4.6864e+005
1275	-4.6266	-3.6588	0.49466	4.0096e+005
1276	-5.082	-4.3857	1.0059	6.5392e+005
1277	-4.6597	-4.482	1.1761	9.4898e+005
1278	-4.8102	-4.6519	0.31877	4.4324e+005
1279	-4.9571	-4.3166	0.27149	4.8478e+005
1280	-4.9598	-4.7349	0.75403	3.7122e+005
1281	-4.3906	4.3906	-0.11265	2.3837e+005
1282	-4.4125	3.9556	-0.19727	1.6875e+005
1283	-4.6647	4.2223	-0.52123	2.2876e+005
1284	-4.1782	4.4281	-0.23879	1.8218e+005
1285	-4.2905	4.6443	-0.5075	2.4703e+005
1286	-4.4883	4.7228	-0.1671	2.5967e+005
1287	-4.6837	4.355	-0.17769	2.6698e+005
1288	-4.3803	3.9203	6.7549e-003	1.5172e+005
1289	-4.1429	4.3814	-3.7588e-002	1.4831e+005
1290	-4.453	4.6875	3.3489e-002	1.9427e+005
1291	-4.6484	4.3197	2.2897e-002	2.2778e+005
1292	4.4483	4.7176	0.55168	7.7884e+005
1293	4.4483	4.4483	0.28239	3.8763e+005
1294	4.9319	4.5103	0.48973	4.9343e+005
1295	4.709	4.4528	0.54719	7.5189e+005
1296	4.8032	4.0071	0.58767	3.4773e+005
1297	4.8155	4.4083	0.92113	7.7959e+005
1298	4.8076	4.4065	0.26479	4.7586e+005
1299	4.552	4.7871	0.23106	4.5376e+005
1300	4.7981	4.7942	0.60518	3.1762e+005
1301	4.3896	5.1073	0.61039	6.92e+005
1302	4.4966	5.3615	0.88873	3.1411e+005
1303	4.6956	5.5399	0.75365	2.6007e+005
1304	4.1538	5.3058	0.53905	2.7816e+005
1305	4.2759	5.5213	0.33516	2.387e+005
1306	4.5005	5.1571	0.28256	3.2676e+005
1307	4.7466	5.1643	0.65668	2.0198e+005
1308	4.3882	4.5618	0.43823	5.2223e+005
1309	4.4058	5.176	0.924	6.2524e+005
1310	4.6427	4.4936	1.0079	9.1523e+005
1311	4.3845	4.9277	1.4503	9.0447e+005
1312	4.5053	4.6266	1.3412	1.0026e+006
1313	4.1186	5.1117	0.60961	5.4013e+005
1314	4.0058	4.7471	0.56582	5.105e+005
1315	4.4652	4.9566	0.31783	5.9764e+005
1316	4.7113	4.9637	0.69195	4.8428e+005
1317	4.3896	4.3896	-0.10732	1.8633e+005
1318	4.492	4.1247	-0.35501	1.7188e+005
1319	4.6789	3.9811	-0.53008	1.7272e+005
1320	4.0445	4.4374	-0.25997	1.7616e+005
1321	4.2268	4.6671	-0.52274	2.2759e+005
1322	4.7561	4.355	-0.10531	2.6956e+005
1323	4.5005	4.7356	-0.13903	2.5932e+005
1324	4.4035	4.0894	-0.16835	1.3798e+005
1325	4.6321	3.9203	0.49876	92564
1326	4.3869	3.5201	9.0466e-002	1.3218e+005
1327	4.5084	3.6102	0.3774	1.8822e+005
1328	4.0092	4.3832	-6.0649e-002	1.3656e+005
1329	4.0058	4.464	0.31111	1.1632e+005
1330	4.7208	4.3197	9.5279e-002	1.9473e+005
1331	4.4652	4.7003	6.1557e-002	1.5229e+005
1332	5.1126	-4.3906	9.3906	2.6369e+005
1333	5.1973	-3.9556	9.4125	1.9078e+005
1334	5.5212	-4.2223	9.6647	1.9336e+005
1335	5.2096	-4.4167	9.0274	2.7629e+005
1336	5.5071	-4.6437	9.2811	5.1167e+005
1337	5.1662	-4.7053	9.2829	3.7912e+005
1338	5.1743	-4.3342	9.7146	1.927e+005
1339	5.1855	-4.7007	9.7297	2.7105e+005
1340	4.9932	-3.9203	9.3803	83985
1341	5.0062	-4.3803	8.9921	1.5847e+005
1342	4.9656	-4.6701	9.2476	2.5461e+005
1343	4.9737	-4.2989	9.6793	83545
1344	4.9849	-4.6654	9.6945	1.4815e+005
1345	4.7176	-4.4483	0.55168	6.1549e+005
1346	4.4483	-4.7176	0.55168	6.1932e+005
1347	4.4528	-4.4528	0.291	3.3635e+005
1348	4.4123	-4.0071	0.19684	2.7264e+005
1349	4.0789	-4.4083	0.18447	2.9698e+005
1350	4.7228	-4.6187	0.20492	2.9002e+005
1351	4.4203	-4.7859	0.19991	3.485e+005
1352	4.7465	-4.7435	0.48368	2.1613e+005
1353	5.1073	-4.3896	0.61039	5.91e+005
1354	5.355	-4.1247	0.508	2.7662e+005
1355	5.3794	-4.2534	6.1246e-002	2.2205e+005
1356	5.5301	-3.9811	0.32112	2.3366e+005
1357	5.3077	-4.462	0.79379	4.0947e+005
1358	5.5171	-4.6584	0.78135	2.2986e+005
1359	5.0929	-4.5673	0.25642	2.9385e+005
1360	5.1166	-4.692	0.53518	2.5516e+005
1361	4.5618	-4.5618	0.61176	6.7882e+005
1362	4.6445	-4.3882	0.35549	5.1514e+005
1363	5.1684	-4.0894	0.59645	4.9944e+005
1364	4.5012	-3.9203	0.36788	4.5522e+005
1365	4.9095	-3.5201	0.61312	5.2556e+005
1366	4.6226	-3.6102	0.4916	4.4079e+005
1367	5.1139	-4.3908	0.82906	6.7185e+005
1368	4.7788	-4.421	1.1761	9.8018e+005
1369	4.8923	-4.532	0.29169	5.0212e+005
1370	4.916	-4.6567	0.57045	4.4863e+005
1371	4.9102	-4.6675	0.92467	6.0367e+005
1372	4.3896	-5.1073	0.61039	5.9697e+005
1373	4.1113	-5.3615	0.5034	2.3521e+005
1374	4.2464	-5.5399	0.30436	2.3501e+005
1375	4.4468	-5.2793	0.97065	4.5899e+005
1376	4.6572	-5.5164	0.74811	1.8809e+005
1377	4.3688	-5.156	0.25141	3.2547e+005
1378	4.695	-5.1136	0.53518	2.5345e+005
1379	4.6892	-5.1243	0.8894	3.6703e+005
1380	4.076	-5.176	0.59424	4.365e+005
1381	3.9921	-4.4936	0.35734	4.3941e+005
1382	3.5497	-4.9277	0.61552	4.8751e+005
1383	3.6588	-4.6266	0.49466	4.2339e+005
1384	4.3857	-5.082	1.0059	6.6937e+005
1385	4.482	-4.6597	1.1761	9.5968e+005
1386	4.3336	-4.9554	0.28668	5.2121e+005
1387	4.6597	-4.913	0.57045	4.2167e+005
1388	4.6539	-4.9237	0.92467	5.8532e+005
1389	5.1126	4.3906	9.3906	2.6444e+005
1390	5.1973	4.4125	8.9556	2.6886e+005
1391	5.5212	4.6647	9.2223	5.061e+005
1392	5.2096	4.0274	9.4167	1.8681e+005
1393	5.5071	4.2811	9.6437	1.908e+005
1394	5.1657	4.7078	9.3618	3.5918e+005
1395	5.1661	4.2829	9.7054	1.8573e+005
1396	5.1854	4.7297	9.7007	2.7272e+005
1397	4.9932	4.3803	8.9203	1.5676e+005
1398	5.0062	3.9921	9.3803	84623
1399	4.9651	4.6725	9.3266	2.4073e+005
1400	4.9655	4.2476	9.6701	80442
1401	4.9848	4.6945	9.6654	1.5576e+005
1402	5.1126	4.3906	0.60943	6.0692e+005
1403	5.1973	3.9556	0.58752	1.8506e+005
1404	5.5212	4.2223	0.33529	2.435e+005
1405	5.2096	4.4167	0.97262	5.6863e+005
1406	5.5071	4.6437	0.71891	2.1384e+005
1407	5.1777	4.355	0.31628	3.3274e+005
1408	5.1681	4.7427	0.65668	1.8353e+005
1409	4.9932	3.9203	0.61972	4.3759e+005
1410	5.0062	4.3803	1.0079	8.0428e+005
1411	4.9771	4.3197	0.35155	5.6166e+005
1412	4.9676	4.7074	0.69195	4.1663e+005
1413	-4.3906	-4.3906	-0.11265	2.5019e+005
1414	-3.9556	-4.4125	-0.19727	1.6289e+005
1415	-4.2223	-4.6647	-0.52123	2.3875e+005
1416	-4.4167	-4.0274	-0.20955	1.7912e+005
1417	-4.6437	-4.2811	-0.50707	2.6188e+005
1418	-4.5892	-4.6872	-0.13808	2.6278e+005
1419	-4.7361	-4.3519	-0.18537	2.6259e+005
1420	-4.0894	-4.8963	0.28441	1.9614e+005
1421	-3.9203	-4.3803	6.7549e-003	1.5825e+005
1422	-4.1871	-4.6689	-0.25924	2.1244e+005
1423	-4.3803	-3.9921	-6.2444e-003	1.644e+005
1424	-4.554	-4.6519	6.2505e-002	1.9555e+005
1425	-4.7008	-4.3166	1.5221e-002	2.0339e+005
1426	4.3906	-4.3906	-0.11265	2.44e+005
1427	4.4125	-3.9556	-0.19727	1.6022e+005
1428	4.6647	-4.2223	-0.52123	2.3795e+005
1429	4.0274	-4.4167	-0.20955	1.7692e+005
1430	4.2811	-4.6437	-0.50707	2.5671e+005
1431	4.6713	-4.5673	-0.16517	2.5825e+005
1432	4.3688	-4.7344	-0.17018	2.6734e+005
1433	4.8963	-4.0894	0.28441	1.942e+005
1434	4.3803	-3.9203	6.7549e-003	1.5541e+005
1435	4.6689	-4.1871	-0.25924	2.1019e+005
1436	3.9921	-4.3803	-6.2444e-003	1.6045e+005
1437	4.6361	-4.532	3.5417e-002	1.8842e+005
1438	4.3336	-4.6991	3.0406e-002	2.1205e+005
1439	4.8081	3.6215	0.10467	1.0776e+005
1440	4.406	3.2213	-0.17686	1.4434e+005
1441	4.6382	3.3114	8.0454e-002	1.765e+005
1442	4.734	3.647	-0.55977	1.3803e+005
1443	4.5994	3.2988	-0.47287	2.0947e+005
1444	4.7919	4.0209	-0.15655	1.9875e+005
1445	4.7766	3.2354	-0.24645	1.8291e+005
1446	4.8953	-3.6215	0.19187	2.2654e+005
1447	5.4307	-3.9193	2.5434e-002	1.7313e+005
1448	5.177	-3.8882	-7.4054e-002	1.7391e+005
1449	5.1769	-3.2213	0.59398	2.1654e+005
1450	4.9195	-3.3114	0.36176	1.7142e+005
1451	5.5598	-3.647	0.26601	2.3556e+005
1452	5.4729	-3.2988	0.40062	1.9569e+005
1453	5.1442	-4.2332	0.22061	1.6666e+005
1454	5.2359	-3.263	0.24244	2.3135e+005
1455	5.4507	3.7191	0.42543	1.2022e+005
1456	4.9126	3.1423	0.61356	1.761e+005
1457	5.0344	3.4779	-2.8718e-003	91925
1458	5.4637	3.2437	0.4112	1.094e+005
1459	5.1953	2.9196	0.58819	2.7715e+005
1460	5.2045	3.2591	4.2479e-002	1.3713e+005
1461	5.0696	3.8518	0.35256	1.6566e+005
1462	5.0543	3.0663	0.26266	1.377e+005
1463	4.5746	-3.7191	-0.45068	1.4201e+005
1464	4.3864	-3.1423	8.7447e-002	1.3857e+005
1465	5.0029	-3.4779	-3.4433e-002	1.8974e+005
1466	4.5888	-3.2437	-0.46369	2.2685e+005
1467	4.4118	-2.9196	-0.19526	2.2401e+005
1468	4.7268	-3.0938	-3.5295e-002	1.8545e+005
1469	5.2263	-4.0169	-0.57696	2.2358e+005
1470	5.5806	-3.7757	-0.2167	1.6472e+005
1471	5.2441	-3.5414	-0.56964	1.0232e+005
1472	5.5054	-3.5179	-0.35867	1.2359e+005
1473	5.1704	-4.3618	-0.22356	2.3306e+005
1474	5.577	4.0169	-0.22631	1.5983e+005
1475	5.2167	3.7757	-0.58064	1.4064e+005
1476	5.3727	3.5569	-0.49517	1.1605e+005
1477	5.2361	4.1495	-0.18278	2.3315e+005
1478	5.2846	-3.7447	-0.30035	1.7022e+005
1479	4.9689	-3.5104	-0.61897	94986
1480	4.9167	-4.3308	-0.32305	2.3429e+005
1481	5.3004	3.7447	-0.28458	1.4677e+005
1482	5.619	3.5104	3.1133e-002	1.6492e+005
1483	5.5524	3.5259	-0.28092	1.7826e+005
1484	5.3356	4.1185	7.0854e-002	2.1613e+005
1485	4.5031	2.7421	0.37033	1.8962e+005
1486	4.441	2.7295	-0.26753	1.8272e+005
1487	4.4462	2.0449	0.27828	3.2669e+005
1488	4.4282	2.203	-0.2391	3.1467e+005
1489	4.3805	2.1702	1.943e-002	1.2063e+005
1490	4.6873	2.2817	7.2485e-002	1.3776e+005
1491	4.7042	2.6661	-3.383e-003	1.7446e+005
1492	4.6297	-2.7421	0.49695	3.2288e+005
1493	5.2675	-2.7295	0.55904	3.271e+005
1494	4.7216	-2.0443	0.55371	5.1413e+005
1495	5.2391	-2.203	0.57178	4.5791e+005
1496	4.9806	-2.1702	0.61945	6.0742e+005
1497	4.9928	-2.6937	0.31481	2.5831e+005
1498	4.8812	-2.3542	0.35774	2.9912e+005
1499	5.0248	2.6095	0.61926	3.9466e+005
1500	4.6517	2.135	0.51259	4.5262e+005
1501	4.8675	2.3718	0.31432	1.9899e+005
1502	4.8845	2.7562	0.23845	1.8006e+005
1503	4.3807	-2.6095	-2.4756e-002	1.21e+005
1504	4.4873	-2.1343	0.34825	3.646e+005
1505	4.751	-2.7838	0.1346	1.7182e+005
1506	4.6393	-2.4443	0.17753	1.8134e+005
1507	5.3038	-3.2692	-0.30132	2.209e+005
1508	5.5945	-3.1552	0.17525	1.7757e+005
1509	5.6031	-3.2457	-0.14283	1.9179e+005
1510	5.3434	-3.1194	1.6135e-002	2.0204e+005
1511	4.6793	-2.7109	-0.53031	3.0615e+005
1512	5.3131	-3.0114	-0.53487	2.4799e+005
1513	5.1975	-2.4854	-0.58744	4.776e+005
1514	4.9085	-2.5846	-0.61297	4.5896e+005
1515	5.0277	-2.8851	-0.30218	2.0598e+005
1516	4.8248	3.1552	-0.59446	1.9501e+005
1517	5.1597	3.2847	-0.59884	1.6987e+005
1518	5.0182	3.8773	-0.26409	1.8777e+005
1519	5.0029	3.0918	-0.35399	1.7017e+005
1520	5.5303	2.7109	0.32073	2.6789e+005
1521	5.5434	3.0504	-0.29797	1.7039e+005
1522	5.5871	2.5327	-0.19847	2.6662e+005
1523	5.613	2.5846	9.1486e-002	1.4776e+005
1524	5.3212	2.8576	-3.8297e-002	1.8309e+005
1525	5.0008	2.9364	-0.61976	2.7431e+005
1526	4.652	2.2805	-0.51284	4.6759e+005
1527	4.867	2.582	-0.60531	4.5924e+005
1528	4.8505	2.7436	-0.30906	2.3748e+005
1529	5.6195	-2.8974	1.655e-002	1.2792e+005
1530	5.5128	-2.2805	0.34799	3.2368e+005
1531	5.6053	-2.582	0.13305	1.2736e+005
1532	5.2985	-2.7711	0.16853	1.8737e+005
1533	4.9167	1.9123	0.61413	5.5208e+005
1534	5.4846	2.2605	0.3863	3.2333e+005
1535	5.3883	1.7196	0.48302	5.4775e+005
1536	5.1436	2.149	0.30328	2.8054e+005
1537	5.1605	2.5335	0.22741	2.4166e+005
1538	4.3858	-1.9116	8.317e-002	1.599e+005
1539	4.6137	-2.2605	-0.48464	4.4508e+005
1540	4.5135	-1.7006	-0.3839	5.1818e+005
1541	4.762	-2.5611	-0.14148	2.0811e+005
1542	4.6504	-2.2216	-9.8553e-002	1.535e+005
1543	5.4749	-2.4619	-0.39819	4.0753e+005
1544	5.1883	-2.561	-0.44458	3.8324e+005
1545	5.5915	-2.6724	-0.18485	1.7509e+005
1546	5.3067	-2.8616	-0.13889	1.8479e+005
1547	5.4106	2.5482	-0.46425	3.5981e+005
1548	5.2013	2.7114	-0.58614	4.1103e+005
1549	5.173	2.873	-0.30864	2.1316e+005
1550	4.5973	1.5959	-2.5244e-002	61131
1551	4.421	1.5631	0.22112	2.9902e+005
1552	5.025	1.2451	0.61925	6.1014e+005
1553	4.3969	1.0669	0.14277	1.4448e+005
1554	4.6751	0.7637	0.52778	7.8824e+005
1555	4.4765	0.6683	0.33172	4.4924e+005
1556	4.7402	1.0839	-8.4675e-002	1.9977e+005
1557	5.0713	1.2146	0.10613	1.5672e+005
1558	4.7784	1.6745	0.25375	3.4053e+005
1559	5.0783	1.8922	-0.6148	5.4631e+005
1560	4.4552	1.7211	-0.29545	3.3434e+005
1561	4.8367	2.0555	-0.59786	6.0798e+005
1562	4.499	1.225	-0.36477	4.8261e+005
1563	4.7621	1.242	-0.57228	8.0377e+005
1564	4.8078	1.8326	-0.21571	2.9697e+005
1565	4.8248	2.2171	-0.29158	3.6689e+005
1566	5.0252	-1.5952	0.40265	5.016e+005
1567	4.7788	-1.5624	0.57892	6.5039e+005
1568	4.3805	-1.2254	-1.9446e-002	1.035e+005
1569	4.8571	-1.0663	0.60306	7.1143e+005
1570	4.6678	-0.67342	0.5232	7.5942e+005
1571	4.4719	-0.76882	0.32438	4.2368e+005
1572	4.8875	-1.1055	-7.3818e-002	1.4817e+005
1573	4.6998	-1.7464	0.26656	3.4547e+005
1574	5.6147	-1.8449	-7.9268e-002	1.1761e+005
1575	5.2954	-1.7211	0.5448	5.9741e+005
1576	5.5979	-2.0555	0.16329	1.9664e+005
1577	5.3648	-1.225	0.50104	6.5691e+005
1578	5.5925	-1.1091	0.18189	1.8845e+005
1579	5.357	-1.2642	-0.10316	2.027e+005
1580	5.281	-2.2446	0.19429	2.5786e+005
1581	5.1694	-1.9051	0.23722	2.9593e+005
1582	5.1203	-2.035	-0.60797	6.1546e+005
1583	5.5415	-2.1464	-0.30152	3.7028e+005
1584	4.9786	-1.4751	-0.61939	6.9421e+005
1585	5.5506	-1.2	-0.28445	3.5763e+005
1586	5.3052	-1.3552	-0.53942	7.3097e+005
1587	5.1139	-1.9961	-0.19274	2.8349e+005
1588	5.6078	2.0823	-0.12129	1.9435e+005
1589	5.3006	2.1937	-0.54196	5.3498e+005
1590	5.2294	1.3802	-0.57575	7.3624e+005
1591	5.5356	1.5109	-0.3119	4.0748e+005
1592	5.2371	1.9709	-0.16106	2.4205e+005
1593	5.2541	2.3553	-0.23693	3.122e+005
1594	5.5445	1.5933	0.29597	3.7858e+005
1595	5.6189	1.5628	-3.2969e-002	1.2727e+005
1596	5.2925	2.0227	0.11643	1.4606e+005
1597	5.3095	2.4072	4.0565e-002	1.5519e+005
1598	5.2231	-2.2456	-0.33306	3.5537e+005
1599	4.6991	-1.5743	-0.5418	6.7263e+005
1600	4.9489	-2.4348	-0.29041	3.282e+005
1601	4.8372	-2.0953	-0.24749	2.6692e+005
1602	4.3928	1.1922	-0.12426	2.0754e+005
1603	4.6853	1.7998	1.0126e-002	1.1378e+005
1604	5.0464	2.5186	-0.35212	3.4779e+005
1605	5.1243	-1.1922	0.60717	8.067e+005
1606	4.9435	-1.8723	0.3597	4.3639e+005
1607	5.3416	-2.5462	-2.737e-002	1.632e+005
1608	5.2299	-2.2067	1.5559e-002	1.2966e+005
1609	4.9405	0.87421	0.10233	1.4133e+005
1610	5.3465	0.17813	0.51386	7.3575e+005
1611	5.1594	0.57097	0.5989	7.8637e+005
1612	4.9401	0.47557	0.30453	4.5019e+005
1613	5.5855	0.29407	0.20313	2.6913e+005
1614	5.6111	1.0219	0.10331	1.5214e+005
1615	5.4429	0.62216	-2.422e-002	63762
1616	5.2277	1.4818	0.23563	3.3835e+005
1617	4.483	-0.15914	-0.34178	5.4938e+005
1618	4.3998	-0.55777	-0.15441	2.3686e+005
1619	4.7365	-0.14219	-0.56096	8.7278e+005
1620	4.8845	-0.89442	-0.6089	7.8539e+005
1621	4.7138	-1.5353	-0.17894	3.3125e+005
1622	4.6063	0.39284	0.19131	3.1169e+005
1623	4.3802	0.29744	-1.1839e-003	42414
1624	4.606	0.71302	-0.47838	6.7134e+005
1625	4.9946	0.84372	-0.21764	3.411e+005
1626	5.0007	-0.30324	0.61976	9.2227e+005
1627	4.8085	-0.39864	0.39327	5.8169e+005
1628	5.514	-0.58014	0.34631	4.0237e+005
1629	5.2114	-0.73528	2.9153e-003	49233
1630	4.5614	-5.7936e-003	0.43791	6.3102e+005
1631	5.2085	-0.1873	0.27726	4.5177e+005
1632	5.1087	0.14079	6.4755e-002	1.2922e+005
1633	4.6632	0.31439	-0.20624	3.5815e+005
1634	5.0164	-0.2827	8.483e-002	1.11e+005
1635	4.8166	-0.43784	-0.18927	2.6957e+005
1636	4.9942	0.44508	-1.544e-002	35645
1637	4.9165	4.5388e-002	-0.12767	2.243e+005
1638	5.0682	-2.2262e-002	-0.616	9.0983e+005
1639	5.3095	0.86066	-0.53695	6.621e+005
1640	5.1836	0.46097	-0.59194	8.5923e+005
1641	4.9508	1.3206	-0.27514	4.8075e+005
1642	5.5008	-0.61935	-0.36505	4.5107e+005
1643	5.6052	0.26358	-0.13353	2.0355e+005
1644	5.5609	-0.13612	-0.26357	3.9724e+005
1645	5.3252	-0.29126	-0.52758	7.7384e+005
1646	5.0317	-1.4154	-0.23925	3.728e+005
1647	5.5095	0.59167	-0.35286	5.2485e+005
1648	5.2818	1.4513	-8.434e-002	1.6989e+005
1649	-3.6215	-4.8953	0.19187	2.2367e+005
1650	-3.9193	-5.4307	2.5434e-002	1.7212e+005
1651	-3.8882	-5.177	-7.4054e-002	1.7199e+005
1652	-3.2213	-5.1769	0.59398	2.343e+005
1653	-3.3114	-4.9195	0.36176	1.6676e+005
1654	-3.647	-5.5598	0.26601	2.3649e+005
1655	-3.2988	-5.4729	0.40062	2.0184e+005
1656	-4.2551	-5.16	0.24769	1.7471e+005
1657	-3.2374	-5.2439	0.23582	2.3558e+005
1658	3.6799	-4.9034	0.17376	1.8923e+005
1659	3.8988	-5.571	0.24102	1.5364e+005
1660	3.2375	-5.2019	0.58596	1.9003e+005
1661	3.3466	-4.9276	0.36107	1.3735e+005
1662	3.46	-5.584	0.20755	1.8569e+005
1663	3.1969	-5.483	0.3883	1.4748e+005
1664	4.0213	-5.2132	0.21032	1.666e+005
1665	-3.7191	-4.5746	-0.45068	1.3901e+005
1666	-3.1423	-4.3864	8.7447e-002	1.3586e+005
1667	-3.4779	-5.0029	-3.4433e-002	1.9039e+005
1668	-3.2437	-4.5888	-0.46369	2.1764e+005
1669	-2.9534	-4.4178	-0.21251	2.3817e+005
1670	-3.0683	-4.7348	-4.191e-002	1.8945e+005
1671	3.8497	-4.5657	-0.4421	1.4957e+005
1672	3.2627	-4.3854	7.9572e-002	1.7902e+005
1673	3.5294	-4.5579	-0.43433	1.5418e+005
1674	3.3761	-5.0015	-0.10241	2.1214e+005
1675	3.1479	-4.4489	-0.28355	2.6734e+005
1676	3.9374	-4.7002	-7.497e-002	2.0535e+005
1677	-4.0169	-5.2263	-0.57696	2.1905e+005
1678	-3.7757	-5.5806	-0.2167	1.6412e+005
1679	-3.5566	-5.4953	-0.37256	1.197e+005
1680	-4.3838	-5.1862	-0.19647	2.3337e+005
1681	4.0998	-5.1633	-0.59786	2.4303e+005
1682	4.065	-5.5568	-0.27223	1.6741e+005
1683	3.7795	-5.1527	-0.60066	99784
1684	3.6262	-5.5401	-0.30402	1.5404e+005
1685	3.6009	-5.3366	-0.52037	1.0025e+005
1686	4.1875	-5.2038	-0.25692	2.4923e+005
1687	-3.7447	-5.2846	-0.30035	1.673e+005
1688	-3.5104	-4.9689	-0.61897	86220
1689	-3.5255	-5.2811	-0.55236	1.1668e+005
1690	-4.3528	-4.9326	-0.29596	2.3745e+005
1691	3.7831	-4.8885	-0.60964	1.0723e+005
1692	4.1912	-4.9546	-0.32496	2.581e+005
1693	3.5951	-5.6171	-5.7659e-002	1.7988e+005
1694	4.1564	-5.3147	-3.0117e-002	2.1379e+005
1695	-2.7421	-4.6297	0.49695	3.3971e+005
1696	-2.7295	-5.2675	0.55904	3.4311e+005
1697	-2.1109	-4.7258	0.55582	5.2022e+005
1698	-2.2426	-5.2421	0.57051	4.5336e+005
1699	-1.7449	-5.0349	0.61877	6.735e+005
1700	-2.6681	-5.0008	0.3082	2.6821e+005
1701	2.8203	-4.6486	0.51054	2.9231e+005
1702	2.6706	-5.291	0.5472	3.2966e+005
1703	2.1953	-5.1663	0.59703	5.5154e+005
1704	2.2181	-4.9159	0.61403	5.7566e+005
1705	2.3829	-4.9852	0.36069	2.8605e+005
1706	-2.6433	-4.3817	-4.2993e-002	1.2951e+005
1707	-2.201	-4.49	0.35215	3.5789e+005
1708	-2.7582	-4.759	0.12798	1.7036e+005
1709	3.1962	-4.6583	-0.17223	1.1229e+005
1710	3.0428	-5.0258	8.4902e-002	1.7687e+005
1711	2.7797	-4.9883	0.28555	2.1465e+005
1712	2.8147	-4.3887	-0.10211	1.79e+005
1713	3.0176	-4.8547	-0.14722	1.5151e+005
1714	2.2707	-4.4268	0.23558	2.1712e+005
1715	2.3272	-4.6173	0.48744	4.1275e+005
1716	2.492	-4.7272	0.1832	1.8202e+005
1717	-3.2692	-5.3038	-0.30132	2.1431e+005
1718	-3.1552	-5.5945	0.17525	1.8457e+005
1719	-3.2843	-5.5989	-0.15951	1.9462e+005
1720	-3.0939	-5.3514	9.5208e-003	2.0784e+005
1721	-2.7447	-4.695	-0.53953	3.1611e+005
1722	-3.0501	-5.2981	-0.54335	2.5185e+005
1723	-2.5414	-5.1934	-0.5888	4.3751e+005
1724	-2.5846	-4.9085	-0.61297	4.6936e+005
1725	-2.8596	-5.0357	-0.3088	2.0411e+005
1726	3.3095	-5.2452	-0.35043	1.5051e+005
1727	3.0814	-4.7029	-0.54389	2.3738e+005
1728	3.2843	-5.0783	-0.6148	1.8702e+005
1729	3.8709	-4.9438	-0.32299	1.471e+005
1730	2.8931	-5.6092	0.1137	1.8406e+005
1731	3.131	-5.4989	-0.36763	2.2687e+005
1732	2.632	-5.5371	-0.30923	3.511e+005
1733	3.7176	-5.3113	-6.5855e-002	2.0714e+005
1734	-2.9361	-5.6198	-6.5285e-004	1.284e+005
1735	-2.3201	-5.5147	0.3453	3.1073e+005
1736	-2.6122	-5.6043	0.13749	1.3629e+005
1737	-2.7456	-5.3065	0.16192	1.9406e+005
1738	2.6649	-5.0463	-6.1597e-002	1.5627e+005
1739	2.8678	-5.4042	-0.12477	1.3485e+005
1740	2.1547	-5.4588	0.41662	4.2812e+005
1741	2.3689	-5.609	-0.11509	2.2357e+005
1742	2.2745	-5.5825	0.21159	2.202e+005
1743	2.3423	-5.2767	0.20565	2.0796e+005
1744	-2.0121	-4.3842	6.9742e-002	1.4929e+005
1745	-2.1438	-4.9869	1.9191e-002	1.1762e+005
1746	-2.2943	-4.6282	-0.49581	4.7592e+005
1747	-1.8681	-4.5157	-0.38669	4.6767e+005
1748	-2.5693	-4.7793	-0.16384	2.299e+005
1749	2.9028	-4.8923	-0.61032	3.306e+005
1750	2.1559	-4.3944	-0.13163	1.1955e+005
1751	2.4039	-4.9615	-0.61856	4.7904e+005
1752	2.136	-4.622	-0.49113	5.4794e+005
1753	2.3772	-4.7852	-0.16396	1.7765e+005
1754	-2.5566	-5.4608	-0.41442	3.7714e+005
1755	-2.7413	-5.5877	-0.19688	1.9297e+005
1756	-2.8747	-5.3062	-0.16043	1.9059e+005
1757	2.6068	-5.3316	-0.5236	4.2788e+005
1758	-1.7015	-5.0304	0.40342	4.7156e+005
1759	-1.4258	-4.3802	-5.4449e-006	91590
1760	-1.2038	-4.8349	0.59736	6.9064e+005
1761	-0.48363	-4.7317	0.55867	7.4466e+005
1762	-0.89126	-4.462	0.30766	3.7508e+005
1763	-2.127	-4.8228	0.22039	2.926e+005
1764	-1.9406	-5.6137	-8.6745e-002	99884
1765	-1.9837	-5.1645	-0.114	1.3618e+005
1766	-2.1253	-5.5975	0.16455	1.7772e+005
1767	-1.5575	-5.0304	-3.5316e-002	1.316e+005
1768	-1.3355	-5.3447	0.51502	6.2928e+005
1769	-1.2642	-5.5924	0.18215	1.6538e+005
1770	-1.4194	-5.3254	-0.11633	2.4463e+005
1771	-2.2587	-5.291	0.18507	2.4586e+005
1772	1.7992	-5.5233	0.3321	4.01e+005
1773	1.7022	-5.1284	0.6063	6.7569e+005
1774	1.2875	-5.5597	0.26618	2.8891e+005
1775	1.1409	-5.1549	0.60008	8.0488e+005
1776	0.91414	-5.3938	0.47853	6.7025e+005
1777	1.867	-5.187	0.30448	3.8829e+005
1778	1.6685	-4.5941	0.46831	4.7119e+005
1779	1.592	-4.4198	-0.21797	2.5126e+005
1780	1.2538	-5.0172	8.3174e-002	1.1184e+005
1781	1.1072	-4.615	0.48567	6.0602e+005
1782	0.69956	-4.4074	0.18133	2.2801e+005
1783	1.0774	-4.3818	-4.4387e-002	1.4993e+005
1784	1.8332	-4.7158	0.1554	2.0994e+005
1785	-2.0911	-5.1161	-0.60879	5.997e+005
1786	-2.2327	-5.5416	-0.30129	3.5233e+005
1787	-1.3716	-5.5503	-0.28513	3.3657e+005
1788	-1.5268	-5.2702	-0.55777	7.1662e+005
1789	-2.3661	-5.2302	-0.24492	3.1431e+005
1790	2.0134	-5.5804	-0.21744	2.4685e+005
1791	1.8399	-5.0515	-0.61761	6.5202e+005
1792	1.5018	-5.5497	-0.28623	3.369e+005
1793	1.3029	-5.2599	-0.56262	8.0353e+005
1794	2.0812	-5.202	-0.18987	2.5814e+005
1795	-1.708	-4.6863	-0.53451	6.2273e+005
1796	-1.5699	-4.991	-0.61969	7.4803e+005
1797	-2.4092	-4.9569	-0.29703	3.4891e+005
1798	-2.5508	-5.35	-2.9455e-002	1.7946e+005
1799	1.4074	-5.6188	3.4145e-002	1.0426e+005
1800	1.9868	-5.3129	0.10612	1.8581e+005
1801	1.3104	-5.2479	0.28318	3.0953e+005
1802	1.1637	-4.9043	0.61232	8.3045e+005
1803	1.8898	-4.9466	0.35541	4.101e+005
1804	-1.0598	-4.8563	8.1261e-002	1.2644e+005
1805	-0.7473	-4.4022	-0.16355	2.0704e+005
1806	-0.36945	-4.5013	-0.36796	5.5434e+005
1807	-1.1437	-4.8359	-0.59762	7.3909e+005
1808	-0.81958	-4.6742	-0.52723	7.4899e+005
1809	1.2339	-5.1578	-0.29093	4.0515e+005
1810	1.0575	-4.5561	-0.43254	6.1054e+005
1811	1.035	-4.9006	-0.61173	8.7365e+005
1812	1.8133	-4.8564	-0.21871	3.1937e+005
1813	-0.11766	-5.0414	0.61837	9.082e+005
1814	-0.5253	-4.7751	0.37802	5.3233e+005
1815	-0.76653	-5.4959	0.37174	3.7922e+005
1816	-0.9217	-5.1513	2.4297e-004	21930
1817	-0.34444	-5.2987	0.54304	7.7201e+005
1818	-0.59758	-4.9769	6.7468e-003	21781
1819	0.74909	-5.2748	0.28738	4.4557e+005
1820	0.71931	-5.035	-0.16499	2.9587e+005
1821	0.10023	-5.6189	-3.2768e-002	93731
1822	0.69687	-5.4641	-0.41071	5.5622e+005
1823	0.52231	-5.5774	0.22514	3.0589e+005
1824	1.4751	-5.317	3.1063e-002	1.0047e+005
1825	0.19485	-4.5938	0.46806	5.864e+005
1826	0.5727	-4.6914	0.16356	2.3642e+005
1827	0.3757	-5.1978	0.58735	8.2798e+005
1828	0.16507	-4.3844	-7.1844e-002	1.5345e+005
1829	-3.1929e-002	-4.9136	0.30184	4.5329e+005
1830	-0.28507	-4.6017	-0.21649	3.4542e+005
1831	0.52048	-4.7311	-0.55838	7.6717e+005
1832	0.34592	-4.9395	8.0036e-002	98658
1833	9.2787e-002	-4.5987	-0.47227	6.9347e+005
1834	-9.8602e-002	-5.4697	-0.40438	5.6746e+005
1835	-0.85042	-5.4815	-0.39017	4.7877e+005
1836	-0.27316	-5.5743	0.23295	3.0005e+005
1837	-0.5263	-5.2114	-0.30607	4.9408e+005
1838	-0.25378	-5.1342	-0.60505	9.4181e+005
1839	0.32348	-5.2717	-7.9949e-002	1.7262e+005
1840	7.0348e-002	-4.9584	-0.61836	9.588e+005
1841	-0.68147	-4.9769	-0.61933	8.7685e+005
1842	-0.10421	-5.1154	-6.9437e-002	1.0201e+005
1843	-4.8953	3.6215	0.19187	1.9605e+005
1844	-5.1769	3.2213	0.59398	2.166e+005
1845	-4.9195	3.3114	0.36176	1.1434e+005
1846	-5.5598	3.647	0.26601	2.0233e+005
1847	-5.4729	3.2988	0.40062	1.5321e+005
1848	-5.1565	4.0209	0.20809	1.746e+005
1849	-5.2439	3.2374	0.23582	1.8623e+005
1850	-4.9034	-3.6799	0.17376	1.8997e+005
1851	-5.571	-3.8988	0.24102	1.5219e+005
1852	-5.2019	-3.2375	0.58596	1.9024e+005
1853	-4.9276	-3.3466	0.36107	1.3783e+005
1854	-5.584	-3.46	0.20755	1.8638e+005
1855	-5.483	-3.1969	0.3883	1.4832e+005
1856	-5.2149	-4.0044	0.19513	1.6282e+005
1857	-4.5746	3.7191	-0.45068	1.3028e+005
1858	-4.3864	3.1423	8.7447e-002	1.5419e+005
1859	-5.0029	3.4779	-3.4433e-002	2.2389e+005
1860	-4.5888	3.2437	-0.46369	2.2996e+005
1861	-4.4178	2.9534	-0.21251	2.5157e+005
1862	-4.6474	3.8518	-6.9646e-002	2.0645e+005
1863	-4.7348	3.0683	-4.191e-002	2.0864e+005
1864	-4.5657	-3.8497	-0.4421	1.4946e+005
1865	-4.3854	-3.2627	7.9572e-002	1.787e+005
1866	-4.5579	-3.5294	-0.43433	1.5422e+005
1867	-5.0015	-3.3761	-0.10241	2.1211e+005
1868	-4.4489	-3.1479	-0.28355	2.6669e+005
1869	-4.7019	-3.9205	-9.0155e-002	2.0011e+005
1870	-5.1633	-4.0998	-0.59786	2.4441e+005
1871	-5.5568	-4.065	-0.27223	1.6579e+005
1872	-5.1527	-3.7795	-0.60066	99148
1873	-5.5401	-3.6262	-0.30402	1.5291e+005
1874	-5.3366	-3.6009	-0.52037	99263
1875	-5.2055	-4.1706	-0.2721	2.4011e+005
1876	-5.2263	4.0169	-0.57696	2.1465e+005
1877	-5.5806	3.7757	-0.2167	1.7779e+005
1878	-5.4953	3.5566	-0.37256	1.2202e+005
1879	-5.1828	4.1495	-0.23608	2.495e+005
1880	-4.8885	-3.7831	-0.60964	1.0774e+005
1881	-4.9563	-4.1742	-0.34015	2.4915e+005
1882	-5.6171	-3.5951	-5.7659e-002	1.7733e+005
1883	-5.3164	-4.1394	-4.5302e-002	2.0432e+005
1884	-5.2846	3.7447	-0.30035	1.5633e+005
1885	-4.9689	3.5104	-0.61897	60185
1886	-5.2811	3.5255	-0.55236	87919
1887	-4.9291	4.1185	-0.33557	2.4438e+005
1888	-4.6297	2.7421	0.49695	3.4024e+005
1889	-5.2675	2.7295	0.55904	3.432e+005
1890	-4.7258	2.1109	0.55582	5.2045e+005
1891	-5.2421	2.2426	0.57051	4.5395e+005
1892	-5.0349	1.7449	0.61877	6.738e+005
1893	-5.0008	2.6681	0.3082	2.6842e+005
1894	-4.6486	-2.8203	0.51054	2.9151e+005
1895	-5.291	-2.6706	0.5472	3.2957e+005
1896	-5.1663	-2.1953	0.59703	5.5105e+005
1897	-4.9159	-2.2181	0.61403	5.748e+005
1898	-4.9852	-2.3829	0.36069	2.859e+005
1899	-4.3817	2.6433	-4.2993e-002	1.3175e+005
1900	-4.49	2.201	0.35215	3.5673e+005
1901	-4.759	2.7582	0.12798	1.6937e+005
1902	-4.6583	-3.1962	-0.17223	1.1146e+005
1903	-5.0258	-3.0428	8.4902e-002	1.7586e+005
1904	-4.9883	-2.7797	0.28555	2.1325e+005
1905	-4.3887	-2.8147	-0.10211	1.7916e+005
1906	-4.8547	-3.0176	-0.14722	1.5097e+005
1907	-4.4268	-2.2707	0.23558	2.155e+005
1908	-4.6173	-2.3272	0.48744	4.1076e+005
1909	-4.7272	-2.492	0.1832	1.8085e+005
1910	-5.2452	-3.3095	-0.35043	1.5052e+005
1911	-4.7029	-3.0814	-0.54389	2.3743e+005
1912	-5.0783	-3.2843	-0.6148	1.8635e+005
1913	-4.9455	-3.8539	-0.33817	1.4065e+005
1914	-5.6092	-2.8931	0.1137	1.8342e+005
1915	-5.4989	-3.131	-0.36763	2.2635e+005
1916	-5.5371	-2.632	-0.30923	3.5044e+005
1917	-5.3131	-3.7006	-8.104e-002	2.009e+005
1918	-5.3038	3.2692	-0.30132	2.2347e+005
1919	-5.5945	3.1552	0.17525	1.9739e+005
1920	-5.5989	3.2843	-0.15951	2.0862e+005
1921	-5.2641	3.8773	-1.8215e-002	2.3028e+005
1922	-5.3514	3.0939	9.5208e-003	2.2248e+005
1923	-4.695	2.7447	-0.53953	3.1722e+005
1924	-5.2981	3.0501	-0.54335	2.5112e+005
1925	-5.1934	2.5414	-0.5888	4.3775e+005
1926	-4.9085	2.5846	-0.61297	4.7007e+005
1927	-5.0357	2.8596	-0.3088	2.0469e+005
1928	-5.6198	2.9361	-6.5285e-004	1.2828e+005
1929	-5.5147	2.3201	0.3453	3.1013e+005
1930	-5.6043	2.6122	0.13749	1.3425e+005
1931	-5.3065	2.7456	0.16192	1.9199e+005
1932	-5.0463	-2.6649	-6.1597e-002	1.5593e+005
1933	-5.4042	-2.8678	-0.12477	1.3425e+005
1934	-5.4588	-2.1547	0.41662	4.2758e+005
1935	-5.609	-2.3689	-0.11509	2.2254e+005
1936	-5.5825	-2.2745	0.21159	2.2009e+005
1937	-5.2767	-2.3423	0.20565	2.0767e+005
1938	-4.3842	2.0121	6.9742e-002	1.4812e+005
1939	-4.9869	2.1438	1.9191e-002	1.1705e+005
1940	-4.6282	2.2943	-0.49581	4.7597e+005
1941	-4.5157	1.8681	-0.38669	4.6791e+005
1942	-4.7793	2.5693	-0.16384	2.2972e+005
1943	-4.8923	-2.9028	-0.61032	3.298e+005
1944	-4.3944	-2.1559	-0.13163	1.1997e+005
1945	-4.9615	-2.4039	-0.61856	4.7806e+005
1946	-4.622	-2.136	-0.49113	5.4747e+005
1947	-4.7852	-2.3772	-0.16396	1.7767e+005
1948	-5.3316	-2.6068	-0.5236	4.262e+005
1949	-5.4608	2.5566	-0.41442	3.755e+005
1950	-5.5877	2.7413	-0.19688	1.9213e+005
1951	-5.3062	2.8747	-0.16043	1.91e+005
1952	-5.0304	1.7015	0.40342	4.7087e+005
1953	-4.3802	1.4258	-5.4449e-006	91848
1954	-4.8349	1.2038	0.59736	6.8955e+005
1955	-4.7317	0.48363	0.55867	7.4319e+005
1956	-4.462	0.89126	0.30766	3.7397e+005
1957	-4.8228	2.127	0.22039	2.9163e+005
1958	-5.6137	1.9406	-8.6745e-002	99669
1959	-5.1645	1.9837	-0.114	1.3625e+005
1960	-5.5975	2.1253	0.16455	1.7801e+005
1961	-5.0304	1.5575	-3.5316e-002	1.3178e+005
1962	-5.3447	1.3355	0.51502	6.2865e+005
1963	-5.5924	1.2642	0.18215	1.6565e+005
1964	-5.3254	1.4194	-0.11633	2.4433e+005
1965	-5.291	2.2587	0.18507	2.4541e+005
1966	-5.5233	-1.7992	0.3321	4.0071e+005
1967	-5.1284	-1.7022	0.6063	6.7435e+005
1968	-5.5597	-1.2875	0.26618	2.8877e+005
1969	-5.1549	-1.1409	0.60008	8.036e+005
1970	-5.3938	-0.91414	0.47853	6.6948e+005
1971	-5.187	-1.867	0.30448	3.8767e+005
1972	-4.5941	-1.6685	0.46831	4.6965e+005
1973	-4.4198	-1.592	-0.21797	2.5154e+005
1974	-5.0172	-1.2538	8.3174e-002	1.1165e+005
1975	-4.615	-1.1072	0.48567	6.0456e+005
1976	-4.4074	-0.69956	0.18133	2.2689e+005
1977	-4.3818	-1.0774	-4.4387e-002	1.5067e+005
1978	-4.7158	-1.8332	0.1554	2.0941e+005
1979	-5.5804	-2.0134	-0.21744	2.4573e+005
1980	-5.0515	-1.8399	-0.61761	6.5064e+005
1981	-5.5497	-1.5018	-0.28623	3.3562e+005
1982	-5.2599	-1.3029	-0.56262	8.0186e+005
1983	-5.202	-2.0812	-0.18987	2.5734e+005
1984	-5.1161	2.0911	-0.60879	5.9886e+005
1985	-5.5416	2.2327	-0.30129	3.5105e+005
1986	-5.5503	1.3716	-0.28513	3.3567e+005
1987	-5.2702	1.5268	-0.55777	7.1542e+005
1988	-5.2302	2.3661	-0.24492	3.1391e+005
1989	-4.6863	1.708	-0.53451	6.2245e+005
1990	-4.991	1.5699	-0.61969	7.4734e+005
1991	-4.9569	2.4092	-0.29703	3.4888e+005
1992	-5.35	2.5508	-2.9455e-002	1.7858e+005
1993	-5.6188	-1.4074	3.4145e-002	1.0427e+005
1994	-5.3129	-1.9868	0.10612	1.8586e+005
1995	-5.2479	-1.3104	0.28318	3.0898e+005
1996	-4.9043	-1.1637	0.61232	8.2874e+005
1997	-4.9466	-1.8898	0.35541	4.0912e+005
1998	-4.8563	1.0598	8.1261e-002	1.2607e+005
1999	-4.4022	0.7473	-0.16355	2.0738e+005
2000	-4.5013	0.36945	-0.36796	5.5431e+005
2001	-4.8359	1.1437	-0.59762	7.3852e+005
2002	-4.6742	0.81958	-0.52723	7.4856e+005
2003	-5.1578	-1.2339	-0.29093	4.0438e+005
2004	-4.5561	-1.0575	-0.43254	6.1012e+005
2005	-4.9006	-1.035	-0.61173	8.7248e+005
2006	-4.8564	-1.8133	-0.21871	3.1907e+005
2007	-5.0414	0.11766	0.61837	9.0698e+005
2008	-4.7751	0.5253	0.37802	5.3133e+005
2009	-5.4959	0.76653	0.37174	3.7909e+005
2010	-5.1513	0.9217	2.4297e-004	21576
2011	-5.2987	0.34444	0.54304	7.7125e+005
2012	-4.9769	0.59758	6.7468e-003	21815
2013	-5.2748	-0.74909	0.28738	4.4509e+005
2014	-5.035	-0.71931	-0.16499	2.9556e+005
2015	-5.6189	-0.10023	-3.2768e-002	93065
2016	-5.4641	-0.69687	-0.41071	5.5515e+005
2017	-5.5774	-0.52231	0.22514	3.0593e+005
2018	-5.317	-1.4751	3.1063e-002	1.0046e+005
2019	-4.5938	-0.19485	0.46806	5.8509e+005
2020	-4.6914	-0.5727	0.16356	2.3564e+005
2021	-5.1978	-0.3757	0.58735	8.2689e+005
2022	-4.3844	-0.16507	-7.1844e-002	1.5397e+005
2023	-4.9136	3.1929e-002	0.30184	4.5249e+005
2024	-4.6017	0.28507	-0.21649	3.4554e+005
2025	-4.7311	-0.52048	-0.55838	7.6645e+005
2026	-4.9395	-0.34592	8.0036e-002	98341
2027	-4.5987	-9.2787e-002	-0.47227	6.9311e+005
2028	-5.4697	9.8602e-002	-0.40438	5.6638e+005
2029	-5.4815	0.85042	-0.39017	4.7796e+005
2030	-5.5743	0.27316	0.23295	3.0007e+005
2031	-5.2114	0.5263	-0.30607	4.9336e+005
2032	-5.1342	0.25378	-0.60505	9.406e+005
2033	-5.2717	-0.32348	-7.9949e-002	1.7218e+005
2034	-4.9584	-7.0348e-002	-0.61836	9.5768e+005
2035	-4.9769	0.68147	-0.61933	8.7599e+005
2036	-5.1154	0.10421	-6.9437e-002	1.0195e+005
2037	4.8081	4.8953	8.6215	2.8783e+005
2038	4.406	5.1769	8.2213	3.2096e+005
2039	4.6382	4.9195	8.3114	2.7573e+005
2040	4.734	5.5598	8.647	5.1521e+005
2041	4.5994	5.4729	8.2988	4.2256e+005
2042	4.78	5.1806	9.0277	3.8775e+005
2043	4.7642	5.2439	8.2374	3.9985e+005
2044	4.8262	4.9034	1.3201	5.8904e+005
2045	4.759	5.571	1.1012	1.5041e+005
2046	4.414	5.2019	1.7625	5.8952e+005
2047	4.6389	4.9276	1.6534	7.0719e+005
2048	4.7925	5.584	1.54	1.2047e+005
2049	4.6117	5.483	1.8031	1.7384e+005
2050	4.7876	5.2215	1.0042	1.5232e+005
2051	5.4507	4.5746	8.7191	4.5052e+005
2052	4.9126	4.3864	8.1423	1.796e+005
2053	5.0344	5.0029	8.4779	4.2083e+005
2054	5.4637	4.5888	8.2437	3.8049e+005
2055	5.2125	4.4178	7.9534	2.731e+005
2056	5.0577	4.6715	8.8586	2.9478e+005
2057	5.0419	4.7348	8.0683	3.062e+005
2058	5.4421	4.5657	1.1503	2.4317e+005
2059	4.9204	4.3854	1.7373	9.9397e+005
2060	5.4343	4.5579	1.4706	3.1556e+005
2061	5.1024	5.0015	1.6239	2.1039e+005
2062	5.2836	4.4489	1.8521	5.8936e+005
2063	5.0729	4.7085	1.0881	4.4127e+005
2064	5.577	5.2263	9.0169	7.9542e+005
2065	5.2167	5.5806	8.7757	7.6311e+005
2066	5.3726	5.4953	8.5566	7.8223e+005
2067	5.2241	5.2068	9.1564	6.3652e+005
2068	5.2438	5.2288	9.4952	5.3774e+005
2069	5.5979	5.1633	0.90022	6.5375e+005
2070	5.2722	5.5568	0.93495	7.1487e+005
2071	5.6007	5.1527	1.2205	5.7126e+005
2072	5.304	5.5401	1.3738	6.7491e+005
2073	5.5204	5.3366	1.3991	7.2711e+005
2074	5.2549	5.2121	0.83799	4.5637e+005
2075	5.3004	5.2846	8.7447	6.7839e+005
2076	5.619	4.9689	8.5104	6.4005e+005
2077	5.5524	5.2811	8.5255	6.9843e+005
2078	5.3236	4.9532	9.1254	5.4968e+005
2079	5.6096	4.8885	1.2169	3.6373e+005
2080	5.3229	4.9629	0.83437	2.5822e+005
2081	5.0577	5.6171	1.4049	5.3117e+005
2082	5.0281	5.323	0.8691	3.1497e+005
2083	4.5031	4.6297	7.7421	2.117e+005
2084	4.441	5.2675	7.7295	3.5669e+005
2085	4.4442	4.7258	7.1109	3.1453e+005
2086	4.4295	5.2421	7.2426	3.1962e+005
2087	4.3812	5.0349	6.7449	3.3634e+005
2088	4.6918	5.0008	7.6681	3.3453e+005
2089	4.4895	4.6486	2.1797	9.9462e+005
2090	4.4528	5.291	2.3294	4.6771e+005
2091	4.403	5.1663	2.8047	6.4334e+005
2092	4.386	4.9159	2.7819	8.6041e+005
2093	4.6393	4.9852	2.6171	6.1066e+005
2094	5.043	4.3817	7.6433	2.5589e+005
2095	4.6478	4.49	7.201	2.6959e+005
2096	4.872	4.759	7.7582	2.8979e+005
2097	5.1722	4.6583	1.8038	4.1942e+005
2098	4.9151	5.0258	1.9572	3.1472e+005
2099	4.7144	4.9883	2.2203	5.7332e+005
2100	5.1021	4.3887	2.1853	6.9811e+005
2101	5.1472	4.8547	1.9824	2.6949e+005
2102	4.7644	4.4268	2.7293	9.8878e+005
2103	4.5126	4.6173	2.6728	9.6846e+005
2104	4.8168	4.7272	2.508	7.203e+005
2105	5.3013	5.3038	8.2692	6.0783e+005
2106	4.8248	5.5945	8.1552	5.5249e+005
2107	5.1595	5.5989	8.2843	6.6617e+005
2108	5.0063	5.2881	8.8842	5.1958e+005
2109	4.9905	5.3514	8.0939	5.2865e+005
2110	5.5395	4.695	7.7447	4.571e+005
2111	5.5433	5.2981	8.0501	6.2629e+005
2112	5.5888	5.1934	7.5414	5.0992e+005
2113	5.613	4.9085	7.5846	4.9185e+005
2114	5.3088	5.0357	7.8596	4.9124e+005
2115	5.3504	5.2452	1.6905	3.8945e+005
2116	5.5439	4.7029	1.9186	55563
2117	5.6148	5.0783	1.7157	4.4279e+005
2118	5.321	4.9521	1.1546	1.6498e+005
2119	4.8863	5.6092	2.1069	2.3667e+005
2120	5.3676	5.4989	1.869	5.4733e+005
2121	5.3092	5.5371	2.368	5.0583e+005
2122	5.0638	5.3196	1.308	2.6994e+005
2123	5.0007	5.6198	7.9361	5.695e+005
2124	4.6547	5.5147	7.3201	4.2165e+005
2125	4.8625	5.6043	7.6122	4.6933e+005
2126	4.8381	5.3065	7.7456	4.3758e+005
2127	5.0616	5.0463	2.3351	1.6883e+005
2128	5.1248	5.4042	2.1322	2.9048e+005
2129	4.5834	5.4588	2.8453	2.2264e+005
2130	5.1151	5.609	2.6311	2.4353e+005
2131	4.7884	5.5825	2.7255	92755
2132	4.7944	5.2767	2.6577	1.9589e+005
2133	4.9303	4.3842	7.0121	3.5885e+005
2134	4.9808	4.9869	7.1438	3.6425e+005
2135	5.4958	4.6282	7.2943	3.8001e+005
2136	5.3867	4.5157	6.8681	3.5657e+005
2137	5.1638	4.7793	7.5693	3.7971e+005
2138	5.6103	4.8923	2.0972	1.7256e+005
2139	5.1316	4.3944	2.8441	5.7654e+005
2140	5.6186	4.9615	2.5961	1.254e+005
2141	5.4911	4.622	2.864	2.0702e+005
2142	5.164	4.7852	2.6228	3.1105e+005
2143	5.4144	5.4608	7.5566	5.6741e+005
2144	5.1969	5.5877	7.7413	5.8346e+005
2145	5.1604	5.3062	7.8747	5.4541e+005
2146	5.5236	5.3316	2.3932	5.5615e+005
2147	4.5966	5.0304	6.7015	3.7685e+005
2148	5.	4.3802	6.4258	3.6381e+005
2149	4.4026	4.8349	6.2038	3.9163e+005
2150	4.4413	4.7317	5.4836	5.2182e+005
2151	4.6923	4.462	5.8913	4.6986e+005
2152	4.7796	4.8228	7.127	3.9121e+005
2153	5.0867	5.6137	6.9406	4.1521e+005
2154	5.114	5.1645	6.9837	3.9814e+005
2155	4.8355	5.5975	7.1253	4.3212e+005
2156	5.0353	5.0304	6.5575	3.7311e+005
2157	4.485	5.3447	6.3355	4.0156e+005
2158	4.8178	5.5924	6.2642	2.8634e+005
2159	5.1163	5.3254	6.4194	3.1536e+005
2160	4.8149	5.291	7.2587	3.9873e+005
2161	4.6679	5.5233	3.2008	1.5609e+005
2162	4.3937	5.1284	3.2978	6.1191e+005
2163	4.7338	5.5597	3.7125	1.7185e+005
2164	4.3999	5.1549	3.8591	5.363e+005
2165	4.5215	5.3938	4.0859	3.7739e+005
2166	4.6955	5.187	3.133	3.6435e+005
2167	4.5317	4.5941	3.3315	8.4796e+005
2168	5.218	4.4198	3.408	4.9263e+005
2169	4.9168	5.0172	3.7462	4.0284e+005
2170	4.5143	4.615	3.8928	7.7251e+005
2171	4.8187	4.4074	4.3004	7.1833e+005
2172	5.0444	4.3818	3.9226	6.4412e+005
2173	4.8446	4.7158	3.1668	5.9782e+005
2174	5.6088	5.1161	7.0911	4.3067e+005
2175	5.3013	5.5416	7.2327	4.6673e+005
2176	5.2851	5.5503	6.3716	3.1901e+005
2177	5.5578	5.2702	6.5268	3.4924e+005
2178	5.2449	5.2302	7.3661	4.2951e+005
2179	5.2174	5.5804	2.9866	3.1867e+005
2180	5.6176	5.0515	3.1601	2.0404e+005
2181	5.2862	5.5497	3.4982	2.9562e+005
2182	5.5626	5.2599	3.6971	2.8983e+005
2183	5.1899	5.202	2.9188	1.0788e+005
2184	5.5345	4.6863	6.708	3.8871e+005
2185	5.6197	4.991	6.5699	3.3103e+005
2186	5.297	4.9569	7.4092	4.1378e+005
2187	5.0295	5.35	7.5508	4.4628e+005
2188	4.9659	5.6188	3.5926	1.2116e+005
2189	4.8939	5.3129	3.0132	1.3822e+005
2190	4.7168	5.2479	3.6896	3.8463e+005
2191	4.3877	4.9043	3.8363	7.5389e+005
2192	4.6446	4.9466	3.1102	5.7957e+005
2193	4.9187	4.8563	6.0598	3.9321e+005
2194	5.1636	4.4022	5.7473	4.6756e+005
2195	5.368	4.5013	5.3694	3.9117e+005
2196	5.5976	4.8359	6.1437	3.0735e+005
2197	5.5272	4.6742	5.8196	3.0313e+005
2198	5.2909	5.1578	3.7661	68270
2199	5.4325	4.5561	3.9425	2.7916e+005
2200	5.6117	4.9006	3.965	65618
2201	5.2187	4.8564	3.1867	2.3444e+005
2202	4.3816	5.0414	5.1177	5.4935e+005
2203	4.622	4.7751	5.5253	4.9642e+005
2204	4.6283	5.4959	5.7665	3.0434e+005
2205	4.9998	5.1513	5.9217	3.3578e+005
2206	4.457	5.2987	5.3444	3.8701e+005
2207	4.9933	4.9769	5.5976	3.3191e+005
2208	4.7126	5.2748	4.2509	3.0888e+005
2209	5.165	5.035	4.2807	1.8696e+005
2210	5.0328	5.6189	4.8998	76784
2211	5.4107	5.4641	4.3031	78621
2212	4.7749	5.5774	4.4777	1.5745e+005
2213	4.9689	5.317	3.5249	1.4829e+005
2214	4.5319	4.5938	4.8052	6.2186e+005
2215	4.8364	4.6914	4.4273	5.5138e+005
2216	4.4126	5.1978	4.6243	5.1688e+005
2217	5.0718	4.3844	4.8349	4.9283e+005
2218	4.6982	4.9136	5.0319	4.5719e+005
2219	5.2165	4.6017	5.2851	4.0527e+005
2220	5.5584	4.7311	4.4795	1.9128e+005
2221	4.92	4.9395	4.6541	3.937e+005
2222	5.4723	4.5987	4.9072	3.3499e+005
2223	5.4044	5.4697	5.0986	76235
2224	5.3902	5.4815	5.8504	2.1683e+005
2225	4.767	5.5743	5.2732	2.7458e+005
2226	5.3061	5.2114	5.5263	2.1675e+005
2227	5.6051	5.1342	5.2538	1.0316e+005
2228	5.0799	5.2717	4.6765	1.6067e+005
2229	5.6184	4.9584	4.9297	1.0249e+005
2230	5.6193	4.9769	5.6815	2.4465e+005
2231	5.0694	5.1154	5.1042	3.0154e+005
2232	4.8262	3.6799	9.9034	2973.8
2233	4.759	3.8988	10.571	15093
2234	4.414	3.2375	10.202	8387.6
2235	4.6389	3.3466	9.9276	6571.6
2236	4.7925	3.46	10.584	8731.8
2237	4.6117	3.1969	10.483	9279.3
2238	4.7856	3.9353	10.184	21445
2239	4.8081	-3.6215	9.8953	3008.8
2240	4.406	-3.2213	10.177	8675.4
2241	4.6382	-3.3114	9.9195	6711.7
2242	4.734	-3.647	10.56	7322.1
2243	4.5994	-3.2988	10.473	9408.
2244	4.7885	-4.0001	10.187	26697
2245	4.775	-3.485	10.212	5500.3
2246	5.4507	-3.7191	9.5746	8248.1
2247	4.9126	-3.1423	9.3864	5710.7
2248	5.4637	-3.2437	9.5888	6405.6
2249	5.2126	-2.9535	9.4179	6448.4
2250	5.0662	-3.831	9.6783	22142
2251	5.0527	-3.3159	9.7027	3632.9
2252	5.4421	3.8497	9.5657	11929
2253	4.9204	3.2627	9.3854	6546.8
2254	5.4343	3.5294	9.5579	6457.6
2255	5.1024	3.3761	10.002	3497.7
2256	5.2836	3.1479	9.4489	6493.6
2257	5.0709	3.8515	9.6712	17016
2258	5.577	-4.0169	10.226	16210
2259	5.2167	-3.7757	10.581	13352
2260	5.3729	-3.5547	10.495	14172
2261	5.2327	-4.1288	10.214	29305
2262	5.2438	-4.4952	10.229	1.1683e+005
2263	5.5979	4.0998	10.163	21377
2264	5.2722	4.065	10.557	23518
2265	5.6007	3.7795	10.153	16603
2266	5.304	3.6262	10.54	17530
2267	5.5204	3.6009	10.337	17458
2268	5.2528	4.1015	10.175	24349
2269	5.2722	4.5484	10.17	1.23e+005
2270	5.3004	-3.7447	10.285	5831.8
2271	5.619	-3.5104	9.9689	8488.2
2272	5.5526	-3.5237	10.281	7504.2
2273	5.3321	-4.0978	9.96	21452
2274	5.3186	-3.5827	9.9844	5958.1
2275	5.6096	3.7831	9.8885	12732
2276	5.3209	4.1052	9.9256	16468
2277	5.0577	3.5951	10.617	15223
2278	5.026	4.0704	10.286	24704
2279	4.4895	2.8203	9.6486	6533.
2280	4.4528	2.6706	10.291	6491.8
2281	4.4026	2.1852	10.165	7166.6
2282	4.3865	2.2199	9.9121	7398.7
2283	4.6375	2.4508	9.901	4333.2
2284	4.5031	-2.7421	9.6297	7127.7
2285	4.441	-2.7295	10.268	6848.6
2286	4.4442	-2.1109	9.7258	6928.
2287	4.4282	-2.203	10.239	6953.6
2288	4.7026	-2.9158	9.9687	3917.1
2289	4.7352	-2.5179	9.9778	3483.
2290	5.1722	3.1962	9.6583	5471.
2291	4.9151	3.0428	10.026	1313.1
2292	4.7144	2.7797	9.9883	3589.5
2293	5.1021	2.8147	9.3887	6765.3
2294	5.1472	3.0176	9.8547	2959.9
2295	4.7696	2.2709	9.4247	8154.3
2296	4.5149	2.329	9.6142	7043.7
2297	4.815	2.5599	9.6431	5326.
2298	5.0431	-2.6435	9.3817	7433.7
2299	4.6478	-2.201	9.49	7209.7
2300	4.8828	-3.0059	9.7269	4805.6
2301	4.9155	-2.608	9.736	3919.8
2302	4.8248	-3.1552	10.594	6170.8
2303	5.16	-3.2825	10.599	6575.2
2304	5.0148	-3.8565	10.295	25048
2305	5.0013	-3.3415	10.319	2641.
2306	5.5396	-2.7448	9.6951	7213.1
2307	5.5436	-3.0482	10.298	7138.4
2308	5.5859	-2.5041	10.202	7286.4
2309	5.613	-2.5846	9.9085	8035.4
2310	5.3196	-3.1072	10.004	4254.8
2311	5.3522	-2.7094	10.013	4546.
2312	5.3504	3.3095	10.245	5219.5
2313	5.5439	3.0814	9.7029	7458.7
2314	5.6148	3.2843	10.078	7310.8
2315	5.3189	3.7849	9.9148	17453
2316	4.8863	2.8931	10.609	7966.5
2317	5.3676	3.131	10.499	7149.1
2318	5.3092	2.632	10.537	7224.
2319	5.0618	3.6316	10.282	19566
2320	5.0616	2.6649	10.046	1222.5
2321	5.1248	2.8678	10.404	5567.
2322	4.5823	2.1446	10.458	7965.1
2323	5.1151	2.3689	10.609	5882.9
2324	4.7888	2.2765	10.583	8010.4
2325	4.7925	2.4102	10.193	3710.3
2326	5.0011	-2.9342	10.62	7168.
2327	4.652	-2.2805	10.513	8168.1
2328	4.867	-2.582	10.605	7834.7
2329	4.8489	-2.9932	10.274	4268.1
2330	4.8815	-2.5954	10.284	4125.1
2331	5.6103	2.9028	9.8923	6404.3
2332	5.1371	2.1561	9.3956	6742.7
2333	5.6186	2.4039	9.9615	5454.4
2334	5.4911	2.136	9.622	7554.5
2335	5.1622	2.4451	9.701	4202.2
2336	4.9304	-2.0122	9.3842	5861.5
2337	5.4959	-2.2945	9.6282	7541.9
2338	5.4053	-1.8337	9.5311	7885.7
2339	5.1747	-2.8171	9.7472	4571.5
2340	5.2074	-2.4193	9.7564	4186.7
2341	5.408	-2.5174	10.466	7891.9
2342	5.2016	-2.7093	10.586	8077.4
2343	5.1716	-3.1205	10.274	4395.6
2344	5.2043	-2.7226	10.283	4673.6
2345	5.5236	2.6068	10.332	7377.8
2346	4.6479	1.6358	9.8842	4689.5
2347	4.667	1.7911	10.523	7378.5
2348	4.3926	1.694	10.123	7210.8
2349	4.7325	1.2775	10.559	6805.7
2350	4.3905	1.1467	10.112	7218.7
2351	4.5146	1.0789	10.385	8040.9
2352	4.6929	1.9248	10.102	4123.6
2353	4.8474	1.7677	10.011	1738.9
2354	4.5379	1.6705	9.587	6801.5
2355	5.2232	1.5922	9.4218	6213.9
2356	4.9221	1.254	10.015	727.27
2357	4.5456	1.1232	9.5786	6759.4
2358	5.0924	1.0006	9.3872	7052.
2359	4.8264	0.6975	9.4051	8088.2
2360	5.2064	1.1449	9.7617	4051.1
2361	4.8481	1.9014	9.6298	5115.
2362	4.3818	-1.6618	10.043	4903.8
2363	5.0241	-1.3912	9.3807	4956.7
2364	4.461	-0.46785	9.6941	6831.8
2365	4.4096	-1.0988	9.8114	6467.4
2366	4.6945	-0.89356	9.4608	7072.6
2367	4.8231	-1.9768	9.7998	2765.6
2368	5.0746	-1.8636	10.615	5653.1
2369	4.8367	-2.0555	10.598	7509.4
2370	5.0491	-1.4833	10.046	763.14
2371	4.47	-1.1909	10.321	7613.1
2372	4.7864	-1.2007	10.582	6663.2
2373	5.0942	-1.3305	10.378	5032.6
2374	4.8558	-2.0689	10.266	3915.6
2375	5.607	-2.0537	10.125	6961.4
2376	5.2974	-2.1651	10.544	7325.6
2377	5.6197	-1.5929	9.9927	5899.9
2378	5.25	-1.3103	10.567	6098.9
2379	5.5253	-1.4401	10.329	7774.1
2380	5.2828	-2.1785	10.214	4361.7
2381	5.2178	2.0154	10.58	6493.6
2382	5.6176	1.8399	10.052	5996.3
2383	5.2862	1.5018	10.55	6842.9
2384	5.5637	1.3927	10.258	7146.3
2385	5.1881	2.1491	10.118	2469.5
2386	5.5463	-1.6734	9.7073	7753.8
2387	5.3405	-2.259	9.9339	4479.5
2388	5.2162	1.7475	10.154	3292.9
2389	4.9662	1.4093	10.619	7820.9
2390	4.8924	2.0567	10.229	3211.6
2391	4.3965	1.1813	9.8589	7710.9
2392	4.6436	1.9595	9.8586	4723.5
2393	5.0774	-2.3704	10.327	4396.1
2394	5.2909	1.2339	10.158	4183.7
2395	5.4621	0.98047	9.587	7588.7
2396	5.6113	1.1247	9.898	7132.7
2397	5.2169	1.8812	9.7722	3980.9
2398	4.9301	-0.92025	9.85	1979.4
2399	5.4195	-0.41188	9.5438	7764.
2400	5.189	-0.71502	9.4098	6827.3
2401	5.6141	-1.0598	9.9164	6633.7
2402	5.5738	-0.75168	9.7657	7340.9
2403	5.2781	-1.7982	9.8175	4168.4
2404	4.7202	0.76487	10.233	4504.2
2405	4.766	0.6971	10.574	6942.6
2406	5.0028	0.12415	10.62	6850.
2407	5.4127	0.78658	10.462	6278.6
2408	5.2673	0.39673	10.559	7479.9
2409	4.3808	3.1005e-003	9.9745	7736.1
2410	4.8803	0.51147	9.6722	4147.8
2411	4.5625	0.20833	9.561	6708.4
2412	4.3982	0.56627	10.148	7036.5
2413	5.0045	0.65575	9.9794	122.59
2414	4.6193	-0.42261	9.7505	5817.
2415	4.4414	-6.4674e-002	10.268	7839.
2416	4.5862	-0.63762	10.461	5624.5
2417	4.9753	-0.76741	10.182	2675.2
2418	5.0035	-0.45927	10.03	716.2
2419	4.9221	-0.36504	10.261	3729.5
2420	5.1165	8.5758e-002	9.3913	7207.1
2421	4.9498	0.44369	9.955	982.95
2422	5.5746	0.53318	9.7678	6571.8
2423	5.5413	4.9099e-002	9.6983	7048.7
2424	5.4084	0.14332	9.9585	5421.8
2425	4.6941	0.14056	9.906	4264.6
2426	5.2341	-0.25404	9.678	5080.1
2427	5.1527	-0.15981	9.9095	2426.8
2428	4.731	-7.4452e-002	10.558	6418.
2429	5.074	0.58797	10.262	3472.4
2430	4.9968	0.19812	10.417	5330.7
2431	5.318	-0.77719	10.532	5846.9
2432	5.2322	-0.37482	10.575	6405.1
2433	5.6188	0.19338	10.034	7655.2
2434	5.5546	0.2876	10.277	7652.5
2435	5.6094	-0.59884	10.113	7642.2
2436	5.5147	-0.50462	10.345	8009.1
2437	5.5846	-0.19647	10.206	7348.2
2438	4.988	-4.3804	1.3934	8.8733e+005
2439	5.5207	-4.664	1.0339	89323
2440	5.3362	-4.4794	1.5454	4.9157e+005
2441	5.1224	-4.6953	0.78775	3.3872e+005
2442	5.1166	-4.706	1.142	4.8216e+005
2443	4.4057	-4.8241	1.5703	9.0436e+005
2444	4.6362	-5.5018	1.1775	1.1115e+005
2445	4.3838	-5.066	2.0927	7.6584e+005
2446	4.6538	-5.514	1.5982	94474
2447	4.5028	-5.3701	1.9163	4.0076e+005
2448	4.6777	-5.1015	1.3188	4.9782e+005
2449	4.8262	-4.9034	8.6799	2.9298e+005
2450	4.759	-5.571	8.8988	5.719e+005
2451	4.414	-5.2019	8.2375	3.2634e+005
2452	4.6389	-4.9276	8.3466	2.7364e+005
2453	4.7925	-5.584	8.46	5.1912e+005
2454	4.6121	-5.4834	8.1948	4.2088e+005
2455	4.7857	-5.1841	8.9353	4.087e+005
2456	5.4421	-4.5657	8.8497	4.4966e+005
2457	4.9204	-4.3854	8.2627	1.7455e+005
2458	5.4343	-4.5579	8.5294	3.8804e+005
2459	5.1024	-5.0015	8.3761	4.151e+005
2460	5.2836	-4.4489	8.1479	2.8819e+005
2461	5.071	-4.6711	8.8515	3.0925e+005
2462	5.5979	-5.1633	9.0998	7.9848e+005
2463	5.2722	-5.5568	9.065	8.1381e+005
2464	5.6007	-5.1527	8.7795	7.3705e+005
2465	5.304	-5.5401	8.6262	7.6314e+005
2466	5.5204	-5.3366	8.6009	7.6739e+005
2467	5.2529	-5.1747	9.1015	6.5263e+005
2468	5.2722	-5.1701	9.5484	5.2994e+005
2469	5.1859	-5.5912	0.90367	6.3354e+005
2470	5.5772	-5.2258	0.9369	6.448e+005
2471	5.2062	-5.5845	1.3244	6.2183e+005
2472	5.5217	-5.3346	1.3439	7.0263e+005
2473	5.1698	-5.1957	0.69073	3.9062e+005
2474	5.164	-5.2064	1.045	2.2143e+005
2475	5.0147	-4.3804	1.8925	8.0506e+005
2476	4.4911	-4.6463	2.2629	1.0647e+006
2477	4.7181	-4.4481	2.234	1.0958e+006
2478	4.6293	-4.9725	2.0865	7.0367e+005
2479	4.7929	-4.7123	1.489	7.9882e+005
2480	5.6096	-4.8885	8.7831	6.539e+005
2481	5.321	-4.9256	9.1052	5.6173e+005
2482	5.0577	-5.6171	8.5951	6.9328e+005
2483	5.0261	-5.2856	9.0704	5.8002e+005
2484	4.9532	-5.618	1.3757	4.384e+005
2485	4.9316	-5.2706	0.74207	2.3192e+005
2486	4.9258	-5.2813	1.0963	60495
2487	5.5347	-4.6867	1.533	60461
2488	5.6172	-5.0567	1.4284	5.3332e+005
2489	5.2738	-4.9299	0.7753	2.323e+005
2490	5.268	-4.9406	1.1295	76965
2491	5.5858	-4.7976	1.9399	1.0612e+005
2492	5.0744	-4.3847	2.386	6.9379e+005
2493	4.9754	-4.9807	2.2385	3.0151e+005
2494	5.413	-4.5379	2.6342	3.3083e+005
2495	5.3007	-5.0322	2.3588	68160
2496	5.4671	-4.8615	2.4239	56466
2497	5.139	-4.7205	1.641	4.0127e+005
2498	4.5276	-4.5988	2.7565	9.5134e+005
2499	4.4118	-5.1951	2.6089	5.5777e+005
2500	4.9283	-4.7282	3.0047	5.8608e+005
2501	4.4975	-4.6373	3.4015	8.7403e+005
2502	4.4335	-5.2514	3.1701	5.3794e+005
2503	4.8187	-5.2196	2.7292	2.3856e+005
2504	4.3812	-4.9663	3.3194	7.7475e+005
2505	4.9851	-5.0489	2.7943	2.7543e+005
2506	4.4895	-4.6486	7.8203	2.0065e+005
2507	4.7376	-5.2837	7.9337	4.4829e+005
2508	4.453	-5.2914	7.6685	3.4938e+005
2509	4.9066	-4.7548	7.7055	3.2072e+005
2510	4.9697	-5.1127	7.9084	4.5246e+005
2511	4.4021	-5.1631	7.1248	3.1407e+005
2512	4.5097	-4.6209	7.1971	3.0281e+005
2513	4.9325	-5.1715	7.4095	3.593e+005
2514	4.6441	-5.2837	7.2785	3.284e+005
2515	4.3875	-4.9055	6.7878	3.5855e+005
2516	5.1722	-4.6583	8.1962	3.6739e+005
2517	4.9151	-5.0258	8.0428	3.9352e+005
2518	5.1021	-4.3887	7.8147	2.6783e+005
2519	5.1472	-4.8547	8.0176	4.0009e+005
2520	4.7684	-4.4252	7.3062	2.4869e+005
2521	5.3504	-5.2452	8.3095	6.1685e+005
2522	5.5439	-4.7029	8.0814	4.8699e+005
2523	5.6148	-5.0783	8.2843	6.2016e+005
2524	5.319	-4.9148	8.7849	5.0532e+005
2525	4.8868	-5.6093	7.891	5.4318e+005
2526	5.3676	-5.4989	8.131	6.463e+005
2527	5.3092	-5.5371	7.632	5.5371e+005
2528	5.0619	-5.2823	8.6316	5.3143e+005
2529	5.3603	-5.5043	1.8159	5.0977e+005
2530	4.7706	-5.5757	2.1145	1.3311e+005
2531	5.1116	-5.6096	2.2348	4.4965e+005
2532	4.9471	-5.283	1.517	74191
2533	5.0933	-5.3218	2.1339	2.1136e+005
2534	5.6049	-4.8649	2.5297	1.8237e+005
2535	5.4625	-5.4126	2.2542	5.2664e+005
2536	5.5856	-5.2029	2.3193	4.8976e+005
2537	5.2568	-5.0617	1.5365	1.251e+005
2538	4.6826	-4.9452	2.5801	5.8844e+005
2539	5.1433	-4.397	2.9758	6.1336e+005
2540	4.7279	-4.4432	3.3726	9.0262e+005
2541	5.0079	-4.9968	2.7003	2.6393e+005
2542	5.1743	-4.8261	2.7654	3.0535e+005
2543	4.64	-5.5045	2.9937	1.7505e+005
2544	4.903	-5.6121	2.5528	1.5135e+005
2545	4.7561	-5.2069	1.835	2.9566e+005
2546	4.5813	-5.4569	7.0821	4.0923e+005
2547	5.1156	-5.6089	7.3668	4.5427e+005
2548	4.7962	-5.5853	7.2358	4.2373e+005
2549	5.6103	-4.8923	7.9028	5.1983e+005
2550	5.1358	-4.3953	7.1915	3.6816e+005
2551	5.6186	-4.9615	7.4039	4.2597e+005
2552	5.4911	-4.622	7.136	3.7233e+005
2553	5.5236	-5.3316	7.6068	5.5921e+005
2554	5.0953	-4.3876	3.6208	5.3557e+005
2555	5.0766	-5.0623	3.3894	2.0338e+005
2556	4.923	-4.8259	3.5387	4.3983e+005
2557	5.6103	-4.892	3.0137	94222
2558	5.4484	-4.5722	3.8663	2.9271e+005
2559	5.6196	-5.0137	3.4943	56181
2560	5.5821	-4.7873	3.8004	1.257e+005
2561	4.4465	-4.7211	3.9355	7.275e+005
2562	5.0749	-4.3848	4.2631	5.7713e+005
2563	4.4453	-4.7236	4.4452	6.8617e+005
2564	4.9822	-4.3805	4.7608	6.2398e+005
2565	5.1522	-4.7418	4.1973	3.9949e+005
2566	4.7643	-5.033	4.3528	4.6863e+005
2567	4.6484	-4.4897	4.6885	7.0652e+005
2568	4.9631	-5.6187	3.114	1.7237e+005
2569	4.4803	-5.3377	3.7041	3.8785e+005
2570	5.1334	-5.3829	3.1791	1.3154e+005
2571	5.0852	-5.6139	3.6597	85582
2572	4.7652	-5.5736	4.1214	1.3947e+005
2573	4.6455	-4.883	6.6107	3.6653e+005
2574	4.6716	-5.5256	6.692	3.941e+005
2575	5.0156	-5.025	6.5552	3.6972e+005
2576	4.7445	-5.5646	6.2406	3.1512e+005
2577	4.391	-5.1149	6.2014	4.2271e+005
2578	4.5504	-5.4266	6.0927	3.5862e+005
2579	5.1418	-4.9008	6.8954	4.0819e+005
2580	4.8534	-5.0129	6.7644	3.7809e+005
2581	5.222	-4.4214	6.6275	3.5449e+005
2582	4.5415	-4.583	6.2737	4.0676e+005
2583	5.0459	-4.3819	6.0935	3.8812e+005
2584	4.7026	-4.4562	6.0212	4.7034e+005
2585	5.2247	-5.5776	6.9768	4.3613e+005
2586	5.6176	-5.0515	6.8399	4.1131e+005
2587	5.2996	-5.5426	6.5254	3.5725e+005
2588	5.5724	-5.2375	6.3639	3.278e+005
2589	5.4437	-5.4327	2.7382	4.2723e+005
2590	5.3503	-5.5113	3.2189	3.7878e+005
2591	4.3839	-5.0671	4.3631	5.8922e+005
2592	4.9137	-5.2485	3.809	1.7688e+005
2593	5.0016	-5.0408	4.1152	3.0679e+005
2594	4.53	-5.404	4.2707	3.7215e+005
2595	5.2235	-5.1549	6.7089	3.8251e+005
2596	4.9887	-5.6197	6.3944	3.284e+005
2597	5.306	-5.1564	6.2575	3.041e+005
2598	4.9688	-4.7771	6.2182	4.1139e+005
2599	5.4306	-4.5542	6.038	3.9217e+005
2600	5.6073	-4.8765	6.096	2.7539e+005
2601	5.52	-5.3372	3.284	3.3881e+005
2602	4.909	-4.8137	4.6907	4.4164e+005
2603	5.363	-4.4977	5.0063	3.7939e+005
2604	5.5747	-4.768	4.4428	1.6132e+005
2605	5.1389	-5.0786	4.5983	2.2664e+005
2606	5.5837	-4.7916	5.0643	2.6314e+005
2607	5.4228	-5.0104	4.6871	1.7401e+005
2608	5.0237	-4.5365	4.934	4.5976e+005
2609	4.3814	-4.9629	5.3686	5.0825e+005
2610	4.5318	-5.4061	4.7804	3.3436e+005
2611	4.8979	-5.2666	4.8692	2.786e+005
2612	4.4273	-4.7631	5.116	5.6848e+005
2613	4.46	-5.3041	5.2599	4.4116e+005
2614	5.5708	-5.2415	4.0708	1.6554e+005
2615	5.1663	-5.597	4.2263	1.0077e+005
2616	5.428	-5.4482	4.3152	1.486e+005
2617	4.7341	-5.2363	5.9037	3.573e+005
2618	4.9568	-5.6182	5.3155	1.856e+005
2619	5.4395	-5.437	5.7814	2.2127e+005
2620	5.2532	-5.5657	5.4043	1.326e+005
2621	4.8338	-5.5971	5.795	2.9218e+005
2622	4.8405	-4.6531	5.6842	4.4554e+005
2623	5.0065	-4.9624	5.7422	3.2804e+005
2624	4.4766	-4.6681	5.6119	5.2586e+005
2625	4.4157	-5.2066	5.7558	3.9929e+005
2626	5.546	-4.7069	5.5619	3.09e+005
2627	4.939	-4.3833	5.4316	5.0632e+005
2628	5.2317	-5.3085	4.5325	72895
2629	5.6183	-5.0425	4.9984	96940
2630	5.5618	-5.2618	4.6213	57913
2631	5.1448	-5.6026	4.7768	77687
2632	4.7268	-5.5563	5.1676	2.2745e+005
2633	5.5506	-5.2845	5.2428	1.065e+005
2634	5.1148	-4.7916	5.4896	3.8922e+005
2635	5.1185	-5.279	5.6335	2.6401e+005
2636	5.0126	-4.9894	5.1125	2.9819e+005
2637	5.0163	-5.4768	5.2564	1.7525e+005
2638	4.6172	-5.0029	5.5032	4.6143e+005
2639	3.7396	4.8645	0.16018	2.0821e+005
2640	3.9475	5.383	5.8687e-002	1.4605e+005
2641	3.7361	4.9515	0.61786	2.0315e+005
2642	3.971	5.5237	0.33141	1.7321e+005
2643	3.2125	5.2056	0.58466	1.9303e+005
2644	3.5726	5.5217	0.33453	2.0969e+005
2645	4.1956	5.161	0.28036	1.7171e+005
2646	3.8382	4.9378	-0.31797	1.8573e+005
2647	3.6268	4.4022	0.16357	1.7993e+005
2648	3.8125	4.6283	-0.49594	1.6187e+005
2649	3.0642	4.3811	3.1841e-002	1.9448e+005
2650	3.4632	5.0182	-7.9529e-002	2.0217e+005
2651	3.3316	4.6423	-0.50608	2.2566e+005
2652	3.0561	4.4476	-0.28099	2.2365e+005
2653	4.0862	4.7158	-9.6295e-002	1.6776e+005
2654	-3.8989	5.571	0.24102	1.6003e+005
2655	-3.2375	5.2019	0.58596	1.8729e+005
2656	-3.46	5.584	0.20755	1.8127e+005
2657	-3.1936	5.4832	0.38805	1.4341e+005
2658	-3.6917	5.2168	0.19948	2.1408e+005
2659	-4.1407	5.2016	0.2134	1.3252e+005
2660	-4.0099	4.5892	-0.46401	1.734e+005
2661	-3.4556	4.3822	4.9166e-002	1.4996e+005
2662	-3.6965	4.5823	-0.45788	1.1504e+005
2663	-3.2988	4.464	-0.31107	2.2205e+005
2664	-3.7587	4.711	-0.11632	2.2162e+005
2665	-4.2077	4.6958	-0.1024	1.6018e+005
2666	-4.1095	5.164	-0.59765	2.3937e+005
2667	-4.0654	5.5568	-0.27222	1.6639e+005
2668	-3.7961	5.1552	-0.60001	79783
2669	-3.6265	5.5401	-0.304	1.4219e+005
2670	-3.6021	5.3366	-0.52041	1.1736e+005
2671	-3.8582	5.2074	-0.26774	1.9469e+005
2672	-4.3073	5.1922	-0.25382	2.4134e+005
2673	4.0696	5.5861	-0.20159	1.4398e+005
2674	4.0205	5.2285	-0.57611	2.0278e+005
2675	3.6712	5.5872	-0.19808	1.7568e+005
2676	3.5403	5.4803	-0.39162	1.3981e+005
2677	4.2942	5.2343	-0.19779	2.3107e+005
2678	3.0997	4.8387	0.59839	2.224e+005
2679	3.0608	4.5163	0.38744	1.524e+005
2680	3.4598	5.1137	0.26971	1.7964e+005
2681	3.3282	4.8	-6.8839e-002	2.387e+005
2682	4.0828	4.8114	0.25294	1.3012e+005
2683	-3.8088	4.8917	-0.61023	90272
2684	-3.8709	4.959	-0.33592	1.8404e+005
2685	-4.32	4.9438	-0.322	2.6465e+005
2686	-3.5951	5.6171	-5.7665e-002	1.6046e+005
2687	-3.8268	5.3183	-4.0959e-002	2.1256e+005
2688	-4.2759	5.3031	-2.7041e-002	1.7248e+005
2689	3.6947	5.6174	5.3737e-002	1.575e+005
2690	4.3177	5.315	3.697e-002	1.6955e+005
2691	3.6456	5.2862	-0.28036	1.4791e+005
2692	3.5139	4.9724	-0.61914	1.0152e+005
2693	3.5147	5.2623	-0.56152	95882
2694	4.2686	4.9838	-0.29712	2.379e+005
2695	2.5371	4.7143	0.55	3.3989e+005
2696	2.9362	5.4512	0.42482	2.5122e+005
2697	2.8045	5.0421	-3.5817e-003	1.3324e+005
2698	2.8053	5.2986	0.12505	1.5517e+005
2699	1.8798	4.9371	0.61656	6.4523e+005
2700	2.3151	5.4504	0.42573	2.6955e+005
2701	2.4128	5.254	7.5428e-002	1.1062e+005
2702	2.0879	5.2177	0.58026	5.4332e+005
2703	2.7656	4.7171	-0.17237	1.3638e+005
2704	2.4901	4.3814	-3.8607e-002	1.2013e+005
2705	1.8409	4.585	0.46028	5.2929e+005
2706	2.2761	5.0307	0.16742	1.7317e+005
2707	1.9033	4.3864	8.7444e-002	1.0473e+005
2708	2.3739	4.929	-9.336e-002	1.7561e+005
2709	2.1885	4.6617	-0.16643	2.7803e+005
2710	2.049	4.8881	0.39923	4.2611e+005
2711	-2.8623	4.6493	0.51098	2.8127e+005
2712	-2.9337	5.2837	0.2624	2.2189e+005
2713	-2.6674	5.2913	0.54705	3.414e+005
2714	-2.7055	4.7548	9.3448e-002	1.2662e+005
2715	-2.9093	5.1126	3.0235e-002	1.4818e+005
2716	-2.0841	5.1732	0.59505	5.3583e+005
2717	-2.1634	4.629	0.49648	3.5064e+005
2718	-2.4095	5.1715	6.7536e-002	1.3181e+005
2719	-2.2683	5.2833	0.35821	2.8282e+005
2720	-1.6244	4.902	0.61196	6.6466e+005
2721	-3.1654	4.9859	0.27901	2.6937e+005
2722	-2.8567	4.3886	-0.10133	1.5448e+005
2723	-2.3145	4.4294	0.2418	2.0224e+005
2724	-3.3166	4.7284	0.10223	1.7899e+005
2725	-3.0977	4.7051	-0.54512	2.2865e+005
2726	-3.3014	5.0807	-0.61448	1.8308e+005
2727	-3.5575	4.95	-0.33432	1.5996e+005
2728	-2.8899	5.6093	0.11338	1.6302e+005
2729	-3.1318	5.4989	-0.3677	2.107e+005
2730	-2.632	5.5371	-0.30923	3.3317e+005
2731	-3.3879	5.3149	-7.669e-002	2.1711e+005
2732	3.1646	5.3034	-0.28112	2.3167e+005
2733	3.1654	5.598	-0.16285	2.1079e+005
2734	2.6751	5.617	5.8664e-002	1.4694e+005
2735	2.7575	4.702	-0.54341	3.3537e+005
2736	3.0337	5.2778	-0.55402	2.9485e+005
2737	2.6413	5.2165	-0.58071	3.9205e+005
2738	2.4558	4.9339	-0.61623	5.1966e+005
2739	1.8952	4.4245	-0.23011	2.682e+005
2740	2.1804	4.6543	-0.51439	5.3991e+005
2741	-2.0402	5.4639	0.41101	4.5292e+005
2742	-2.3657	5.6089	-0.1154	1.9291e+005
2743	-2.2245	5.5844	0.20622	2.0452e+005
2744	-2.9036	4.8922	-0.61031	3.1195e+005
2745	-2.1578	4.3932	-0.12582	96250
2746	-2.4039	4.9615	-0.61856	4.5586e+005
2747	-2.136	4.622	-0.49113	5.6723e+005
2748	-3.1598	4.786	-0.24564	2.6245e+005
2749	-2.6076	5.3315	-0.52365	4.1405e+005
2750	-3.3635	5.1438	-0.30885	2.3933e+005
2751	2.5443	5.5983	-0.16165	1.4188e+005
2752	2.6421	5.4608	-0.41444	3.6091e+005
2753	1.246	4.4619	0.30741	3.4343e+005
2754	1.3917	5.0645	0.61639	7.3359e+005
2755	0.59889	4.584	0.45939	6.1814e+005
2756	0.78103	5.1671	0.59682	7.3246e+005
2757	0.9367	4.8163	-1.0107e-002	69669
2758	0.32294	4.8166	0.59201	8.7755e+005
2759	1.1738	5.1658	0.14551	2.0184e+005
2760	2.1518	5.5774	-0.22514	2.2138e+005
2761	1.9664	5.2478	-0.27394	3.4284e+005
2762	1.8269	5.5279	0.3247	3.5511e+005
2763	1.2163	5.5749	0.23145	3.4889e+005
2764	1.609	5.608	-0.12003	2.107e+005
2765	1.5936	4.5573	-0.43374	4.536e+005
2766	1.4541	4.8608	0.20736	2.414e+005
2767	0.66131	4.3863	8.6136e-002	1.2072e+005
2768	0.99912	4.5467	-0.42266	5.6909e+005
2769	0.47033	4.417	-0.21028	3.4769e+005
2770	1.2362	4.9688	-0.19932	3.2202e+005
2771	-1.5363	4.8951	0.35793	4.6521e+005
2772	-1.6412	5.5299	0.32139	3.9331e+005
2773	-0.53923	5.4319	0.44452	6.3648e+005
2774	-1.1763	5.5627	0.25964	2.7396e+005
2775	-0.99732	5.1217	0.60769	7.8342e+005
2776	-1.8617	4.9042	-0.13218	1.6268e+005
2777	-1.7206	5.016	0.1585	2.1049e+005
2778	-1.5938	4.4178	-0.21239	2.7121e+005
2779	-0.80071	4.4311	0.24589	3.3651e+005
2780	-1.2557	5.0192	8.8753e-002	93554
2781	-1.0767	4.5879	0.46293	5.9141e+005
2782	-0.99169	4.3821	-4.8056e-002	1.2887e+005
2783	-1.1178	4.7439	-0.19869	3.529e+005
2784	-1.9667	5.5784	-0.22248	2.2863e+005
2785	-1.8399	5.0515	-0.61761	6.75e+005
2786	-1.5018	5.5497	-0.28623	3.4157e+005
2787	-1.3639	5.2375	-0.57243	7.5551e+005
2788	2.0642	5.1634	-0.59784	5.9188e+005
2789	1.7068	5.4883	-0.38169	4.5886e+005
2790	1.7392	5.1052	-4.2126e-002	84856
2791	1.2843	4.8638	-0.6046	8.4805e+005
2792	1.5214	5.266	-0.55976	5.9311e+005
2793	0.98912	5.4149	0.4604	6.2466e+005
2794	1.3819	5.4398	0.11686	1.0191e+005
2795	-1.3606	5.6191	2.8766e-002	58363
2796	-0.9699	4.5629	-0.43938	6.5547e+005
2797	-1.096	4.8765	-0.60734	8.7806e+005
2798	0.19634	4.9648	0.32838	5.0783e+005
2799	0.35201	4.6461	-0.16424	2.8909e+005
2800	-0.26174	4.6103	0.48193	6.5352e+005
2801	-0.17678	4.3805	-1.8736e-002	62628
2802	4.9846e-002	5.0007	1.4669e-003	41335
2803	0.53415	5.1676	-0.10842	1.8179e+005
2804	-0.25861	5.5919	0.1838	2.5244e+005
2805	-7.9605e-002	5.2001	0.58655	7.6239e+005
2806	0.77126	5.6172	5.6337e-002	95232
2807	0.23199	5.6161	6.7593e-002	80308
2808	0.16103	4.6246	-0.49313	7.3804e+005
2809	0.92693	5.2521	-0.56616	7.1172e+005
2810	3.4954e-002	4.9576	-0.61831	9.615e+005
2811	0.38766	5.2624	-0.56147	7.1608e+005
2812	-0.7167	5.2342	0.28008	3.994e+005
2813	-0.75781	5.4476	-0.4287	5.3614e+005
2814	-0.40511	5.5992	-0.1583	2.9073e+005
2815	-0.45272	4.6554	0.14782	2.0102e+005
2816	-0.5788	4.9589	-7.3563e-003	50095
2817	-0.2261	5.204	0.16585	2.2521e+005
2818	-0.49383	4.7178	-0.55179	7.3564e+005
2819	-0.14113	5.0095	-0.28766	4.9015e+005
2820	0.62477	5.553	-0.27977	4.5982e+005
2821	-0.26721	5.3576	-0.50616	7.1317e+005
2822	-4.3804	-4.9882	1.3934	8.7557e+005
2823	-4.6641	-5.5208	1.0339	38804
2824	-4.4822	-5.3406	1.5054	4.6492e+005
2825	-4.7422	-5.1977	0.97133	2.6678e+005
2826	-4.8241	-4.4057	1.5703	9.3108e+005
2827	-5.5018	-4.6362	1.1775	1.1165e+005
2828	-5.066	-4.3838	2.0927	7.8098e+005
2829	-5.514	-4.6538	1.5982	1.003e+005
2830	-5.2205	-5.0137	1.6689	71923
2831	-5.3701	-4.5028	1.9163	4.1465e+005
2832	-5.1375	-4.7587	1.1482	3.1509e+005
2833	-4.8081	-4.8953	8.6215	2.8205e+005
2834	-4.406	-5.1769	8.2213	3.1265e+005
2835	-4.6382	-4.9195	8.3114	2.7059e+005
2836	-4.734	-5.5598	8.647	5.4012e+005
2837	-4.5994	-5.4729	8.2988	4.1675e+005
2838	-4.7672	-5.1914	8.9808	3.9486e+005
2839	-4.7703	-5.2137	8.4842	4.0447e+005
2840	-5.4507	-4.5746	8.7191	4.4497e+005
2841	-4.9126	-4.3864	8.1423	1.7249e+005
2842	-5.4637	-4.5888	8.2437	3.78e+005
2843	-5.2142	-4.4184	7.9539	2.6614e+005
2844	-5.045	-4.6823	8.8117	2.9872e+005
2845	-5.048	-4.7046	8.3151	3.0617e+005
2846	-5.577	-5.2263	9.0169	7.8112e+005
2847	-5.2167	-5.5806	8.7757	7.7682e+005
2848	-5.373	-5.4949	8.5548	7.5622e+005
2849	-5.2114	-5.2176	9.1095	6.2864e+005
2850	-5.1953	-5.3822	9.5099	5.527e+005
2851	-5.5912	-5.1859	0.90367	6.427e+005
2852	-5.2258	-5.5772	0.9369	6.5718e+005
2853	-5.5845	-5.2062	1.3244	6.3682e+005
2854	-5.3381	-5.5194	1.395	6.9439e+005
2855	-5.2425	-5.245	0.87432	4.3277e+005
2856	-4.3806	-5.0198	1.8525	8.169e+005
2857	-4.6463	-4.4911	2.2629	1.0778e+006
2858	-4.8313	-5.1288	1.8391	3.3862e+005
2859	-4.4481	-4.7181	2.234	1.1078e+006
2860	-4.9725	-4.6293	2.0865	7.1311e+005
2861	-4.7483	-4.8739	1.3184	6.2219e+005
2862	-5.3004	-5.2846	8.7447	7.0095e+005
2863	-5.619	-4.9689	8.5104	6.4077e+005
2864	-5.5526	-5.2806	8.5237	6.8576e+005
2865	-5.3109	-4.964	9.0785	5.5716e+005
2866	-5.3139	-4.9863	8.5819	5.6338e+005
2867	-5.618	-4.9532	1.3757	4.5263e+005
2868	-5.3174	-5.0068	0.92565	2.541e+005
2869	-4.6911	-5.5373	1.493	57954
2870	-5.0609	-5.6168	1.4796	5.2846e+005
2871	-4.9767	-5.349	0.95889	2.6749e+005
2872	-4.8064	-5.5887	1.9511	98888
2873	-4.3854	-5.0795	2.346	6.9709e+005
2874	-4.9837	-4.9796	2.1985	3.0038e+005
2875	-4.5531	-5.4294	2.561	3.1653e+005
2876	-5.0271	-5.3223	2.3376	70586
2877	-4.8605	-5.4729	2.388	53641
2878	-4.7595	-5.2241	1.4304	2.0647e+005
2879	-4.5988	-4.5276	2.7565	9.5741e+005
2880	-5.1951	-4.4118	2.6089	5.6007e+005
2881	-4.7414	-4.9395	2.9714	5.7455e+005
2882	-4.6553	-4.4849	3.2771	8.9912e+005
2883	-5.2514	-4.4335	3.1701	5.3418e+005
2884	-5.2114	-4.8362	2.748	2.3205e+005
2885	-4.9104	-4.3867	3.2382	8.1848e+005
2886	-5.0449	-4.9867	2.7984	2.8044e+005
2887	-4.5031	-4.6297	7.7421	1.9923e+005
2888	-4.441	-5.2675	7.7295	3.4546e+005
2889	-4.8592	-4.6977	7.5537	2.9396e+005
2890	-4.4442	-4.7258	7.1109	3.1338e+005
2891	-4.4282	-5.2391	7.203	3.0769e+005
2892	-4.3808	-4.9742	7.2137	3.0078e+005
2893	-4.6979	-4.9706	7.915	3.323e+005
2894	-4.6842	-5.0256	7.5373	3.1646e+005
2895	-5.0448	-4.3819	7.6438	2.5099e+005
2896	-4.6478	-4.49	7.201	2.7185e+005
2897	-4.8781	-4.7288	8.0051	2.9258e+005
2898	-4.8248	-5.5945	8.1552	5.7626e+005
2899	-5.16	-5.5987	8.2825	6.8312e+005
2900	-4.9935	-5.2989	8.8373	5.5138e+005
2901	-4.9774	-5.4635	9.2376	4.8301e+005
2902	-4.9966	-5.3212	8.3407	5.6178e+005
2903	-5.5404	-4.6966	7.7452	4.587e+005
2904	-5.5436	-5.2976	8.0483	6.189e+005
2905	-5.5879	-5.1962	7.5405	5.0706e+005
2906	-5.3149	-5.0055	8.1064	4.9982e+005
2907	-5.3012	-5.0605	7.7287	4.836e+005
2908	-5.5067	-5.3569	1.867	5.0709e+005
2909	-5.5757	-4.7706	2.1145	1.4096e+005
2910	-5.6059	-5.1305	2.2535	4.696e+005
2911	-5.319	-5.0281	1.3464	2.4398e+005
2912	-5.3258	-5.0921	2.1851	2.023e+005
2913	-4.8859	-5.6092	2.5476	1.8893e+005
2914	-5.4012	-5.4724	2.3242	5.251e+005
2915	-5.2028	-5.5856	2.3746	4.7743e+005
2916	-5.1017	-5.3366	1.417	3.0388e+005
2917	-4.9452	-4.6826	2.5801	5.9064e+005
2918	-4.4013	-5.16	2.9425	6.0551e+005
2919	-4.4531	-4.7084	3.2482	9.2853e+005
2920	-4.9887	-5.0254	2.7191	2.5728e+005
2921	-4.8221	-5.1759	2.7695	3.0848e+005
2922	-5.5045	-4.64	2.9937	1.6821e+005
2923	-5.6148	-4.9221	2.5716	1.6001e+005
2924	-5.0012	-5.6198	7.9343	5.5814e+005
2925	-4.652	-5.5128	7.2805	4.1609e+005
2926	-4.867	-5.6053	7.582	4.6487e+005
2927	-4.8442	-5.2763	7.9924	4.3941e+005
2928	-4.8305	-5.3312	7.6147	4.2366e+005
2929	-4.932	-4.384	7.0126	3.646e+005
2930	-5.6108	-4.895	7.2507	3.9147e+005
2931	-5.4035	-4.5296	6.877	3.5139e+005
2932	-5.1714	-4.75	7.8166	3.8452e+005
2933	-5.1578	-4.805	7.4389	3.6864e+005
2934	-5.4127	-5.4624	7.5538	5.5302e+005
2935	-5.2017	-5.586	7.7093	5.7451e+005
2936	-5.167	-5.2757	8.1197	5.4003e+005
2937	-5.1533	-5.3306	7.742	5.2826e+005
2938	-4.3869	-5.0907	3.4631	5.4683e+005
2939	-5.0754	-5.0877	3.3561	1.8572e+005
2940	-4.9047	-5.6124	2.9844	1.0642e+005
2941	-4.55	-5.4261	3.6718	3.1583e+005
2942	-5.0131	-5.6196	3.5142	66777
2943	-4.7153	-5.5505	3.5525	1.2913e+005
2944	-5.0135	-4.6694	3.6618	5.006e+005
2945	-4.691	-4.4627	3.7299	7.9e+005
2946	-4.3803	-5.0044	3.9774	6.3423e+005
2947	-4.6213	-4.5094	4.3021	7.5855e+005
2948	-4.9482	-5.0579	3.8198	3.0539e+005
2949	-4.3911	-4.8846	4.6476	6.7248e+005
2950	-5.6195	-4.9823	3.1327	1.8609e+005
2951	-5.2893	-4.4519	3.623	4.2208e+005
2952	-5.3789	-5.135	3.1831	1.3868e+005
2953	-5.6112	-5.1028	3.7128	86572
2954	-5.5369	-4.6904	4.1649	1.8824e+005
2955	-4.594	-5.0285	6.6618	3.8012e+005
2956	-5.0248	-4.9719	6.8079	4.1139e+005
2957	-4.4217	-4.7772	6.6726	3.7242e+005
2958	-5.02	-4.3806	6.4341	3.6896e+005
2959	-4.667	-4.4773	5.7026	5.1537e+005
2960	-4.4039	-4.8303	6.0481	4.299e+005
2961	-4.7929	-4.4159	6.0905	4.2882e+005
2962	-4.7871	-5.0909	6.1919	3.1472e+005
2963	-4.772	-4.8475	6.9961	3.8825e+005
2964	-5.0806	-5.6145	6.9	4.087e+005
2965	-4.4522	-5.2898	6.7647	3.6884e+005
2966	-4.8367	-5.5979	7.0555	4.2736e+005
2967	-4.4805	-5.338	6.1402	4.2381e+005
2968	-4.8093	-5.5897	6.284	3.1443e+005
2969	-4.8047	-5.3138	7.0882	3.8665e+005
2970	-5.3027	-5.5408	7.2015	4.5931e+005
2971	-5.6195	-4.9826	6.6723	3.9837e+005
2972	-5.2774	-5.5542	6.43	3.4356e+005
2973	-5.5274	-5.3255	6.5759	3.4687e+005
2974	-5.2355	-5.2572	7.2343	4.1607e+005
2975	-5.4155	-5.4598	2.761	4.3414e+005
2976	-5.4894	-5.3802	3.2908	3.7792e+005
2977	-4.7236	-4.8706	3.9386	5.5616e+005
2978	-4.8693	-4.3942	4.2632	6.794e+005
2979	-5.1793	-4.925	3.781	2.2875e+005
2980	-5.2889	-4.4517	4.233	4.6902e+005
2981	-4.3862	-5.086	6.1509	4.1685e+005
2982	-4.6819	-5.0815	7.0989	3.7672e+005
2983	-5.0264	-5.3743	7.3898	4.351e+005
2984	-5.2851	-4.4497	5.9549	4.1674e+005
2985	-5.5038	-4.639	5.5368	2.9514e+005
2986	-5.2395	-5.1056	6.0563	3.0426e+005
2987	-5.6138	-4.9144	6.2021	3.0503e+005
2988	-5.6164	-4.9354	5.7281	2.1373e+005
2989	-5.3184	-5.5317	3.3412	3.2705e+005
2990	-4.6418	-4.8883	4.5107	5.2552e+005
2991	-4.9507	-5.4136	4.0285	90285
2992	-4.4351	-5.2549	4.8563	4.3689e+005
2993	-4.6413	-5.5054	4.0669	2.1235e+005
2994	-5.0158	-5.0246	4.4805	3.1872e+005
2995	-4.713	-5.5493	4.4768	2.4129e+005
2996	-4.4551	-4.7047	5.1809	5.5982e+005
2997	-4.9249	-4.3848	5.2234	5.6246e+005
2998	-5.2122	-4.4177	4.8052	4.3762e+005
2999	-4.8912	-5.0186	4.8014	3.6131e+005
3000	-5.1647	-4.8602	4.9965	3.5707e+005
3001	-5.1333	-5.6053	3.9093	1.3941e+005
3002	-5.6112	-5.1024	4.3229	66291
3003	-5.2139	-5.5817	4.3192	1.0642e+005
3004	-5.4806	-5.3913	4.5143	1.1199e+005
3005	-4.7307	-4.7623	5.5689	4.7254e+005
3006	-4.6199	-5.4895	5.6703	3.5992e+005
3007	-4.6123	-5.4835	5.147	2.7757e+005
3008	-4.9686	-5.222	5.3421	2.7036e+005
3009	-5.3375	-4.4802	5.1932	3.528e+005
3010	-5.0389	-5.0016	5.7127	3.6222e+005
3011	-5.3028	-4.8433	5.3845	2.7153e+005
3012	-4.9099	-5.6132	4.3576	69670
3013	-5.2652	-5.1549	4.7712	1.5667e+005
3014	-5.6197	-4.996	4.9663	1.5447e+005
3015	-5.3368	-5.5202	5.9599	2.5006e+005
3016	-5.0033	-5.6197	5.2908	1.6546e+005
3017	-5.3188	-5.5314	5.4858	1.6106e+005
3018	-5.5507	-5.2843	5.6317	1.5984e+005
3019	-5.3106	-5.5363	4.9626	79364
3020	-4.9746	3.9193	10.431	11697
3021	-5.0741	3.8882	10.177	7539.
3022	-4.406	3.2213	10.177	11226
3023	-4.734	3.647	10.56	14336
3024	-4.5994	3.2988	10.473	12048
3025	-4.7512	3.4913	10.206	8695.5
3026	-5.4507	3.7191	9.5746	17129
3027	-4.9126	3.1423	9.3864	10571
3028	-5.4637	3.2437	9.5888	9031.3
3029	-5.2125	2.9534	9.4178	10943
3030	-5.0289	3.3222	9.6971	8812.3
3031	-4.8262	-3.6799	9.9034	2587.8
3032	-4.759	-3.8988	10.571	14695
3033	-4.414	-3.2375	10.202	8218.
3034	-4.6389	-3.3466	9.9276	6426.5
3035	-4.7925	-3.46	10.584	8082.4
3036	-4.6117	-3.1969	10.483	9166.3
3037	-4.7938	-4.0006	10.216	29015
3038	-5.4421	-3.8497	9.5657	11390
3039	-4.9204	-3.2627	9.3854	6799.9
3040	-5.4343	-3.5294	9.5579	5931.7
3041	-5.1024	-3.3761	10.002	3568.8
3042	-5.2836	-3.1479	9.4489	6751.6
3043	-5.0791	-3.9167	9.7029	26724
3044	-5.5979	-4.0998	10.163	22389
3045	-5.2722	-4.065	10.557	25116
3046	-5.6007	-3.7795	10.153	17747
3047	-5.304	-3.6262	10.54	19425
3048	-5.5204	-3.6009	10.337	19849
3049	-5.2611	-4.1668	10.206	35654
3050	-5.577	4.0169	10.226	23741
3051	-5.2167	3.7757	10.581	15643
3052	-5.3726	3.5566	10.495	14309
3053	-5.1762	4.4556	10.202	1.2067e+005
3054	-5.6096	-3.7831	9.8885	10890
3055	-5.3291	-4.1704	9.9573	25754
3056	-5.0577	-3.5951	10.617	14128
3057	-5.0343	-4.1356	10.317	34953
3058	-5.3004	3.7447	10.285	14403
3059	-5.619	3.5104	9.9689	16301
3060	-5.5524	3.5255	10.281	15365
3061	-5.2757	4.4246	9.9485	1.159e+005
3062	-5.2948	3.5889	9.9788	13442
3063	-4.5031	2.7421	9.6297	6648.6
3064	-4.441	2.7295	10.268	6786.2
3065	-4.8577	2.5533	9.6968	4456.7
3066	-4.4442	2.1109	9.7258	7164.1
3067	-4.4295	2.2426	10.242	6812.6
3068	-4.3812	1.7449	10.035	7776.7
3069	-4.6788	2.922	9.9631	3993.5
3070	-4.7306	2.5176	10.	3433.1
3071	-4.4895	-2.8203	9.6486	6566.7
3072	-4.4528	-2.6706	10.291	6477.5
3073	-4.403	-2.1953	10.166	6998.4
3074	-4.386	-2.2181	9.9159	7561.2
3075	-4.6393	-2.3829	9.9852	4139.9
3076	-5.043	2.6433	9.3817	6942.7
3077	-4.6478	2.201	9.49	7308.7
3078	-4.859	3.0121	9.7213	5084.4
3079	-5.1722	-3.1962	9.6583	5177.4
3080	-4.9151	-3.0428	10.026	1109.8
3081	-4.7144	-2.7797	9.9883	3578.7
3082	-5.1021	-2.8147	9.3887	6797.1
3083	-5.1472	-3.0176	9.8547	2984.3
3084	-4.7644	-2.2707	9.4268	8179.6
3085	-4.5126	-2.3272	9.6173	7145.9
3086	-4.8168	-2.492	9.7272	4416.6
3087	-5.3504	-3.3095	10.245	4217.7
3088	-5.5439	-3.0814	9.7029	6519.6
3089	-5.6148	-3.2843	10.078	6298.7
3090	-5.3271	-3.8501	9.9465	27571
3091	-4.8863	-2.8931	10.609	7429.5
3092	-5.3676	-3.131	10.499	6738.3
3093	-5.3092	-2.632	10.537	6907.9
3094	-5.07	-3.6968	10.314	28452
3095	-4.8248	3.1552	10.594	10802
3096	-5.1595	3.2843	10.599	11087
3097	-4.9775	3.3477	10.314	7273.7
3098	-5.5395	2.7447	9.695	7278.
3099	-5.5433	3.0501	10.298	7378.9
3100	-5.5888	2.5414	10.193	7085.8
3101	-5.613	2.5846	9.9085	8033.5
3102	-5.2958	3.1134	9.998	4019.2
3103	-5.3476	2.7091	10.035	4548.6
3104	-5.0007	2.9361	10.62	7338.8
3105	-4.6547	2.3201	10.515	8216.5
3106	-4.8625	2.6122	10.604	7795.6
3107	-4.8251	2.9995	10.269	4336.6
3108	-4.8769	2.5951	10.306	4422.1
3109	-5.0616	-2.6649	10.046	1227.9
3110	-5.1248	-2.8678	10.404	5573.7
3111	-4.5834	-2.1547	10.459	7796.4
3112	-5.1151	-2.3689	10.609	6013.3
3113	-4.7884	-2.2745	10.583	8066.3
3114	-4.7944	-2.3423	10.277	4476.7
3115	-4.9303	2.0121	9.3842	6394.3
3116	-5.4958	2.2943	9.6282	7409.7
3117	-5.3867	1.8681	9.5157	8007.7
3118	-5.1508	2.8232	9.7416	5353.2
3119	-5.2027	2.4188	9.7789	3929.5
3120	-5.6103	-2.9028	9.8923	6413.5
3121	-5.1316	-2.1559	9.3944	6657.9
3122	-5.6186	-2.4039	9.9615	5644.3
3123	-5.4911	-2.136	9.622	7731.9
3124	-5.164	-2.3772	9.7852	3351.9
3125	-5.5236	-2.6068	10.332	7634.9
3126	-5.4144	2.5566	10.461	7849.4
3127	-5.1969	2.7413	10.588	8302.3
3128	-5.1474	3.1286	10.268	4553.7
3129	-5.1992	2.7242	10.306	5171.5
3130	-4.5966	1.7015	10.03	4748.9
3131	-5.	1.4258	9.3802	5752.2
3132	-4.4026	1.2038	9.8349	6516.6
3133	-4.4413	0.48363	9.7317	7163.8
3134	-4.6923	0.89126	9.462	7595.3
3135	-4.8184	1.9765	9.8224	2994.6
3136	-5.0867	1.9406	10.614	5610.7
3137	-5.114	1.9837	10.165	3045.4
3138	-4.8355	2.1253	10.598	7684.3
3139	-5.0353	1.5575	10.03	669.54
3140	-4.485	1.3355	10.345	7615.7
3141	-4.8178	1.2642	10.592	7229.6
3142	-5.1163	1.4194	10.325	4770.1
3143	-4.8537	2.1082	10.291	4354.4
3144	-4.6679	-1.7992	10.523	7312.6
3145	-4.3937	-1.7022	10.128	7203.6
3146	-4.7338	-1.2875	10.56	6920.6
3147	-4.3999	-1.1409	10.155	7297.4
3148	-4.5215	-0.91414	10.394	7878.5
3149	-4.6955	-1.867	10.187	4368.8
3150	-4.5317	-1.6685	9.5941	6961.1
3151	-5.218	-1.592	9.4198	6210.7
3152	-4.9168	-1.2538	10.017	1016.5
3153	-4.5143	-1.1072	9.615	6716.5
3154	-4.8187	-0.69956	9.4074	8070.3
3155	-5.0444	-1.0774	9.3818	7318.
3156	-4.8446	-1.8332	9.7158	4164.9
3157	-5.2174	-2.0134	10.58	6721.1
3158	-5.6176	-1.8399	10.052	6428.
3159	-5.2862	-1.5018	10.55	7147.4
3160	-5.5626	-1.3029	10.26	7110.1
3161	-5.1899	-2.0812	10.202	3360.3
3162	-5.6088	2.0911	10.116	6804.5
3163	-5.3013	2.2327	10.542	6980.
3164	-5.2851	1.3716	10.55	6355.
3165	-5.5578	1.5268	10.27	7358.
3166	-5.2837	2.2156	10.23	4252.3
3167	-5.5345	1.708	9.6863	7553.5
3168	-5.6197	1.5699	9.991	7704.2
3169	-5.3358	2.2587	9.9565	4370.1
3170	-5.0683	2.4003	10.35	4689.9
3171	-4.9659	-1.4074	10.619	8062.1
3172	-4.8939	-1.9868	10.313	4240.7
3173	-4.7168	-1.3104	10.248	4835.8
3174	-4.3877	-1.1637	9.9043	7940.7
3175	-4.6446	-1.8898	9.9466	4536.
3176	-4.9187	1.0598	9.8563	2101.7
3177	-5.1636	0.7473	9.4022	7017.8
3178	-5.368	0.36945	9.5013	7958.7
3179	-5.5976	1.1437	9.8359	6735.6
3180	-5.5272	0.81958	9.6742	7665.5
3181	-5.2572	1.8325	9.8224	3915.3
3182	-5.2909	-1.2339	10.158	4305.2
3183	-5.4325	-1.0575	9.5561	7826.7
3184	-5.6117	-1.035	9.9006	7108.3
3185	-5.2187	-1.8133	9.8564	3521.2
3186	-4.3816	0.11766	10.041	7797.2
3187	-4.622	0.5253	9.7751	5632.
3188	-4.6283	0.76653	10.496	5947.9
3189	-4.9998	0.9217	10.151	2263.3
3190	-4.457	0.34444	10.299	7820.7
3191	-4.9933	0.59758	9.9769	116.41
3192	-4.7126	-0.74909	10.275	5107.8
3193	-5.165	-0.71931	10.035	2464.1
3194	-5.0328	-0.10023	10.619	7563.5
3195	-5.4107	-0.69687	10.464	6095.7
3196	-4.7749	-0.52231	10.577	7320.9
3197	-4.9689	-1.4751	10.317	4131.9
3198	-4.5319	-0.19485	9.5938	6634.
3199	-4.8364	-0.5727	9.6914	4342.1
3200	-4.4126	-0.3757	10.198	7217.6
3201	-5.0718	-0.16507	9.3844	7482.1
3202	-4.6982	3.1929e-002	9.9136	4131.4
3203	-5.2165	0.28507	9.6017	5850.2
3204	-5.5584	-0.52048	9.7311	6234.4
3205	-4.92	-0.34592	9.9395	1078.1
3206	-5.4723	-9.2787e-002	9.5987	7534.2
3207	-5.4044	9.8602e-002	10.47	5554.3
3208	-5.3902	0.85042	10.482	6038.8
3209	-4.767	0.27316	10.574	6862.8
3210	-5.3061	0.5263	10.211	4525.3
3211	-5.6051	0.25378	10.134	7531.8
3212	-5.0799	-0.32348	10.272	3550.8
3213	-5.6184	-7.0348e-002	9.9584	7298.7
3214	-5.6193	0.68147	9.9769	7595.6
3215	-5.0694	0.10421	10.115	1767.
3216	-3.9475	-4.9413	10.383	13202
3217	-3.7361	-4.3821	9.9515	13576
3218	-3.9219	-5.0406	10.132	7083.1
3219	-3.2125	-4.4153	10.206	13962
3220	-3.5726	-4.6655	10.522	14084
3221	-3.6268	-4.8364	9.4022	7915.
3222	-3.8125	-5.4959	9.6283	12712
3223	-3.0601	-4.9656	9.3812	7709.4
3224	-3.3316	-5.5061	9.6423	7217.2
3225	-3.0561	-5.281	9.4476	7196.1
3226	3.648	-4.3803	9.9893	11544
3227	3.9661	-4.6639	10.521	12765
3228	3.4951	-4.4804	10.338	13205
3229	3.9522	-4.719	10.175	12922
3230	3.4718	-4.821	9.4067	5037.4
3231	3.8229	-5.5009	9.635	22846
3232	3.0628	-5.0443	9.3818	6960.9
3233	3.3988	-5.5152	9.6556	5722.2
3234	2.9947	-5.3415	9.4828	7139.3
3235	3.7759	-5.1126	9.7354	10793
3236	-4.0205	-5.5761	10.228	18905
3237	-3.6712	-5.1981	10.587	12802
3238	-3.5403	-5.3916	10.48	11969
3239	-4.509	-5.3635	10.214	1.5202e+005
3240	4.0962	-5.591	10.187	32593
3241	4.0631	-5.2255	10.577	19298
3242	3.6721	-5.583	10.21	17177
3243	3.5603	-5.3201	10.531	17087
3244	4.6083	-5.2042	10.205	1.1678e+005
3245	4.0492	-5.2192	10.223	15848
3246	-3.8091	-5.0681	9.7828	9502.5
3247	-3.0997	-4.4016	9.8387	7652.9
3248	-3.0567	-4.6106	9.5179	8784.3
3249	-3.4598	-4.7303	10.114	4745.9
3250	-3.3282	-5.0688	9.8	4489.5
3251	3.1894	-4.3805	10.018	5466.
3252	2.9334	-4.6292	9.5034	6433.3
3253	3.2695	-5.048	9.8256	2217.1
3254	2.7576	-4.4427	9.7288	7024.2
3255	3.6465	-4.7246	9.8525	9821.9
3256	-3.6456	-5.2804	10.286	9159.7
3257	-3.5139	-5.6191	9.9724	11692
3258	-3.5147	-5.5615	10.262	10429
3259	-4.4833	-5.4628	9.9635	1.499e+005
3260	3.6206	-5.6183	9.9579	23916
3261	4.5569	-5.2793	9.9668	1.0539e+005
3262	3.9977	-5.2944	9.9849	21543
3263	3.5075	-4.6883	10.536	6621.3
3264	3.4757	-5.0401	10.618	7284.1
3265	4.5237	-4.9386	10.309	1.2262e+005
3266	3.9646	-4.9536	10.327	11967
3267	-2.533	-4.4488	9.7166	6561.4
3268	-2.9362	-4.5752	10.451	7490.5
3269	-2.8045	-5.0036	10.042	516.79
3270	-2.8053	-4.8749	10.299	4067.5
3271	-1.8228	-4.3811	9.9665	7314.8
3272	-2.3151	-4.5743	10.45	6071.9
3273	-2.4128	-4.9246	10.254	3464.7
3274	-2.0829	-4.4198	10.218	7763.7
3275	-2.7615	-5.1701	9.7182	4513.1
3276	-2.486	-5.0361	9.3813	6210.8
3277	-1.7797	-4.5189	9.6093	7059.5
3278	-2.272	-4.8303	10.032	2443.1
3279	-1.8684	-4.9385	9.3833	7188.5
3280	-2.3698	-5.0911	9.9302	1175.8
3281	-2.1876	-5.1638	9.6609	4716.1
3282	-2.0398	-4.5987	9.8895	5590.6
3283	2.7804	-4.6636	9.8826	4379.3
3284	3.1165	-5.058	10.172	2291.4
3285	3.0047	-4.7837	10.581	6065.9
3286	2.6046	-4.3864	10.087	6843.4
3287	2.5191	-4.5324	10.407	7532.1
3288	3.4936	-4.7346	10.199	8848.6
3289	2.8605	-5.2251	9.6934	4854.6
3290	2.7486	-4.9875	10.003	457.51
3291	2.3486	-4.5761	9.5479	7118.
3292	2.4564	-5.1445	9.3973	6938.6
3293	1.9366	-4.856	9.3972	7682.7
3294	-3.1646	-5.2811	10.303	6189.6
3295	-3.1654	-5.1629	10.598	8533.3
3296	-2.6751	-4.9413	10.617	9009.1
3297	-2.7575	-5.5434	9.702	6438.9
3298	-3.0337	-5.554	10.278	7103.7
3299	-2.6413	-5.5807	10.217	7337.9
3300	-2.459	-5.616	9.932	8057.
3301	3.0847	-5.4918	10.377	5744.1
3302	2.7924	-5.5645	9.7442	7133.7
3303	2.5622	-5.5933	10.179	7432.7
3304	3.5736	-5.2961	10.01	10295
3305	2.5728	-4.7801	10.198	3743.7
3306	2.6806	-5.2828	10.074	3547.7
3307	2.4873	-4.8388	10.598	6633.9
3308	2.4504	-5.3478	10.513	7026.9
3309	2.4896	-5.0786	10.615	7321.7
3310	3.4618	-5.0585	10.32	8682.5
3311	-1.8644	-5.2565	9.4358	6700.8
3312	-2.1836	-5.5133	9.6527	6520.8
3313	2.2805	-4.9186	9.6691	4495.8
3314	2.0872	-4.3972	10.144	6860.8
3315	1.7608	-4.5955	9.5304	6839.1
3316	2.0503	-4.9612	10.075	965.63
3317	1.5416	-4.4032	9.833	7983.7
3318	1.8114	-4.9551	9.7095	3870.8
3319	1.8229	-4.7255	9.9784	3720.2
3320	1.8686	-5.1698	9.404	6951.3
3321	2.1582	-5.6164	9.9353	6131.2
3322	1.9192	-5.4595	9.5841	7964.9
3323	-2.5443	-5.1616	10.598	7404.
3324	-2.6421	-5.4144	10.461	7787.
3325	-1.1581	-4.6919	9.4623	5217.7
3326	-1.3295	-4.3874	10.094	7008.6
3327	-7.9475e-002	-4.397	9.8569	7490.2
3328	-0.55753	-4.5232	9.6041	6908.9
3329	-0.98664	-4.4129	10.198	6149.2
3330	-0.91674	-5.0029	9.8519	1880.5
3331	-0.25604	-4.4279	10.238	5534.8
3332	-1.0585	-4.8392	10.197	2909.2
3333	-2.1518	-5.2251	10.577	6940.1
3334	-1.9696	-5.2736	10.246	4634.4
3335	-1.8219	-4.6756	10.528	7118.9
3336	-1.4789	-4.7717	10.576	7357.6
3337	-1.5508	-5.113	10.609	7291.5
3338	-1.5659	-5.4524	9.5764	6483.2
3339	-1.4182	-4.8208	9.8674	2943.2
3340	-0.64617	-4.9452	9.3827	7330.6
3341	-1.0054	-5.4485	9.5723	6452.7
3342	-0.45302	-5.3266	9.4733	7144.8
3343	-1.1471	-5.2209	9.9784	2841.8
3344	1.9648	-5.0394	10.403	5081.5
3345	1.4561	-4.4084	10.185	7043.6
3346	2.004	-4.7753	10.578	7172.1
3347	1.2795	-4.6295	10.497	7400.
3348	1.7374	-4.8038	10.306	4773.4
3349	1.1297	-4.5645	9.559	6287.5
3350	1.3994	-5.2215	9.4212	6572.6
3351	0.65161	-4.8056	9.4115	7773.4
3352	0.84477	-5.1976	9.4126	6592.1
3353	1.1339	-5.1509	9.9236	2028.6
3354	1.4109	-4.9583	9.7779	2653.4
3355	-2.0674	-5.5983	10.162	6975.4
3356	-1.6485	-5.376	10.493	7608.5
3357	1.689	-5.6197	9.9897	6568.7
3358	1.9671	-5.2905	10.547	6918.8
3359	1.446	-5.5723	10.238	7379.1
3360	1.4235	-5.4659	10.409	7991.7
3361	1.7005	-5.2707	10.261	4850.8
3362	-1.7374	-5.0419	10.104	1463.1
3363	-1.3246	-5.6058	9.8694	7976.6
3364	-1.4663	-5.5575	10.271	6265.5
3365	-1.2468	-4.5421	10.418	7753.1
3366	-1.3186	-4.8769	10.443	5750.7
3367	0.43243	-4.5122	9.6177	6983.1
3368	0.73392	-4.4349	10.254	6037.6
3369	0.62559	-4.9276	9.7304	3321.
3370	0.91477	-4.9067	10.165	2731.3
3371	1.1917	-4.7141	10.019	3731.2
3372	0.89535	-5.4785	9.6062	7810.1
3373	1.2071	-5.6024	9.8544	6888.7
3374	1.1845	-5.4572	10.041	5871.3
3375	1.4615	-5.2647	9.8951	3582.5
3376	1.2818	-4.8464	10.6	7017.5
3377	1.4626	-5.2311	10.575	7384.1
3378	1.7396	-5.0235	10.392	4930.8
3379	-0.47474	-4.6769	9.9657	4017.2
3380	-0.40484	-5.1687	9.6524	5043.8
3381	0.25586	-4.7124	9.9893	3347.4
3382	0.14753	-5.1217	9.3923	6374.1
3383	3.864e-002	-5.1151	9.9052	2244.5
3384	-0.83395	-5.1129	10.177	2972.8
3385	-0.17325	-4.6558	10.515	7258.7
3386	-0.97566	-4.9399	10.617	6324.8
3387	-0.39047	-5.0593	10.43	5210.3
3388	-0.21168	-5.551	9.7163	7590.1
3389	-0.90576	-5.56	10.266	6271.2
3390	-0.32057	-5.6063	10.128	7152.3
3391	0.44902	-5.077	10.062	1386.8
3392	-0.24506	-4.9825	10.62	6382.2
3393	0.7382	-5.0696	10.616	6200.3
3394	0.34013	-5.1267	10.607	5406.1
3395	1.0152	-4.8635	10.351	4441.8
3396	0.6524	-5.5959	9.8298	6620.7
3397	0.62987	-5.4411	10.021	5547.4
3398	0.2318	-5.6191	9.9719	5970.
3399	-0.46228	-5.3981	10.475	7412.9
3400	0.94158	-5.5441	10.297	7114.8
3401	0.54351	-5.5694	10.245	7120.9
3402	0.52098	-5.4608	10.414	7767.2
3403	1.196	-5.2276	10.31	5046.6
3404	-4.8398	4.8645	1.2604	6.0053e+005
3405	-4.9413	5.383	1.0525	1.6498e+005
3406	-4.3821	4.9515	1.2639	9.3615e+005
3407	-4.6686	5.5237	1.029	64247
3408	-4.4153	5.2056	1.7875	6.5048e+005
3409	-4.6655	5.5217	1.4274	1.0972e+005
3410	-4.7102	5.1401	0.8678	2.8703e+005
3411	-5.318	4.9378	1.1618	79985
3412	-4.8364	4.4022	1.3732	1.0205e+006
3413	-5.4959	4.6283	1.1875	1.062e+005
3414	-4.9682	4.3811	1.9358	8.5537e+005
3415	-5.0795	5.0182	1.5368	1.8226e+005
3416	-5.5061	4.6423	1.6684	1.7971e+005
3417	-5.281	4.4476	1.9439	5.566e+005
3418	-5.0869	4.6949	0.97716	3.6572e+005
3419	-4.759	5.571	8.8988	5.7986e+005
3420	-4.414	5.2019	8.2375	3.3204e+005
3421	-4.7925	5.584	8.46	5.2228e+005
3422	-4.6119	5.4832	8.1936	4.2712e+005
3423	-4.806	5.2496	8.6767	4.4162e+005
3424	-4.7861	5.2168	9.0583	3.9481e+005
3425	-5.4421	4.5657	8.8497	4.4492e+005
3426	-4.9204	4.3854	8.2627	1.6266e+005
3427	-5.4343	4.5579	8.5294	3.8258e+005
3428	-5.2836	4.4489	8.1479	2.8485e+005
3429	-5.0913	4.7366	8.5928	3.2861e+005
3430	-5.0714	4.7038	8.9744	2.8764e+005
3431	-5.5979	5.1633	9.0998	7.8154e+005
3432	-5.2722	5.5568	9.065	8.0132e+005
3433	-5.6007	5.1527	8.7795	7.1785e+005
3434	-5.304	5.5401	8.6262	7.4414e+005
3435	-5.5204	5.3366	8.6009	7.53e+005
3436	-5.2732	5.2402	8.8429	6.6247e+005
3437	-5.2534	5.2074	9.2245	6.2375e+005
3438	-5.2016	5.5861	0.93035	6.565e+005
3439	-5.5761	5.2285	0.97948	6.6631e+005
3440	-5.1981	5.5872	1.3288	5.7721e+005
3441	-5.3916	5.4803	1.4597	7.4477e+005
3442	-5.1884	5.2134	0.76917	4.1441e+005
3443	-4.4016	4.8387	1.9003	1.0684e+006
3444	-4.6126	4.5163	1.9392	1.1914e+006
3445	-4.7303	5.1137	1.5402	5.1174e+005
3446	-5.0688	4.8	1.6718	5.0504e+005
3447	-4.7376	4.7904	0.98057	6.9238e+005
3448	-5.6096	4.8885	8.7831	6.496e+005
3449	-5.3413	4.991	8.8466	5.9107e+005
3450	-5.3214	4.9583	9.2281	5.5133e+005
3451	-5.0577	5.6171	8.5951	6.9423e+005
3452	-5.0464	5.3511	8.8118	6.1507e+005
3453	-5.0266	5.3183	9.1934	5.7267e+005
3454	-4.9463	5.6174	1.3053	4.1813e+005
3455	-4.9536	5.2941	0.74569	2.7582e+005
3456	-5.2804	5.2862	1.3544	4.2852e+005
3457	-5.6191	4.9724	1.4861	4.3544e+005
3458	-5.5615	5.2623	1.4853	5.9546e+005
3459	-5.2877	4.9629	0.79482	2.7875e+005
3460	-4.45	4.7143	2.4629	9.0186e+005
3461	-4.5752	5.4512	2.0638	2.2925e+005
3462	-5.0036	5.0421	2.1955	2.263e+005
3463	-4.8749	5.2986	2.1947	88560
3464	-4.3834	4.9371	3.1202	8.0559e+005
3465	-4.5743	5.4504	2.6849	3.1066e+005
3466	-4.9246	5.254	2.5872	1.5038e+005
3467	-4.4197	5.2177	2.9121	5.9006e+005
3468	-5.1724	4.7171	2.2344	3.4276e+005
3469	-5.0386	4.3814	2.5099	7.2835e+005
3470	-4.5397	4.585	3.1591	9.237e+005
3471	-4.8326	5.0307	2.7239	4.3737e+005
3472	-4.9126	4.3864	3.0967	8.2959e+005
3473	-5.0934	4.929	2.6261	2.7059e+005
3474	-5.1664	4.6617	2.8115	4.5919e+005
3475	-4.6008	4.8881	2.951	7.1681e+005
3476	-4.4895	4.6486	7.8203	1.9771e+005
3477	-4.7376	5.2837	7.9337	4.4567e+005
3478	-4.453	5.2913	7.6674	3.5052e+005
3479	-4.9066	4.7548	7.7055	3.1819e+005
3480	-4.9697	5.1127	7.9084	4.5482e+005
3481	-4.4049	5.1732	7.0841	3.18e+005
3482	-4.5038	4.6287	7.1607	3.2156e+005
3483	-4.9325	5.1715	7.4095	3.5125e+005
3484	-4.6418	5.2833	7.2683	3.2549e+005
3485	-4.3881	4.9019	6.6241	3.9061e+005
3486	-4.7265	5.0187	8.1504	3.6682e+005
3487	-5.1021	4.3887	7.8147	2.5913e+005
3488	-4.7593	4.4289	7.2699	2.6424e+005
3489	-4.904	4.7608	8.2596	3.11e+005
3490	-5.5439	4.7029	8.0814	4.8496e+005
3491	-5.6148	5.0783	8.2843	6.2445e+005
3492	-5.3393	4.9802	8.5263	5.3546e+005
3493	-4.8866	5.6093	7.8899	5.4092e+005
3494	-5.3676	5.4989	8.131	6.4741e+005
3495	-5.3092	5.5371	7.632	5.4255e+005
3496	-5.0822	5.3477	8.373	5.579e+005
3497	-5.2811	5.3034	1.8354	3.51e+005
3498	-5.1629	5.598	1.8346	5.1078e+005
3499	-4.9413	5.617	2.3249	2.6372e+005
3500	-5.5434	4.702	2.2425	68481
3501	-5.554	5.2778	1.9663	5.1802e+005
3502	-5.5807	5.2165	2.3587	4.2505e+005
3503	-5.6162	4.9339	2.5442	2.4101e+005
3504	-5.2301	4.4245	3.1048	5.3226e+005
3505	-5.5144	4.6543	2.8196	1.637e+005
3506	-4.589	5.4639	7.0402	4.137e+005
3507	-5.1154	5.6089	7.3657	4.4639e+005
3508	-4.7938	5.5844	7.2245	4.2073e+005
3509	-5.6103	4.8923	7.9028	5.1711e+005
3510	-5.1262	4.3932	7.1551	3.8656e+005
3511	-5.6186	4.9615	7.4039	4.1348e+005
3512	-5.4911	4.622	7.136	3.6973e+005
3513	-5.2511	4.8188	8.1448	4.2964e+005
3514	-5.5236	5.3316	7.6068	5.5263e+005
3515	-5.3143	5.1767	8.3477	5.6931e+005
3516	-5.1616	5.5983	2.4557	4.2698e+005
3517	-5.4144	5.4608	2.3579	5.8825e+005
3518	-4.6926	4.4619	3.754	7.3154e+005
3519	-4.3836	5.0645	3.6083	6.1017e+005
3520	-4.5407	4.5839	4.4008	7.3421e+005
3521	-4.4032	5.1671	4.219	5.5893e+005
3522	-5.0101	4.8163	4.0633	4.5367e+005
3523	-4.408	4.8165	4.6768	6.7772e+005
3524	-4.8545	5.1658	3.8262	2.9573e+005
3525	-5.2251	5.5774	2.8482	3.369e+005
3526	-5.2739	5.2478	3.0336	1.5547e+005
3527	-4.6753	5.5279	3.1731	1.3337e+005
3528	-4.7685	5.5749	3.7837	88878
3529	-5.12	5.608	3.391	2.1214e+005
3530	-5.4337	4.5573	3.4064	2.6525e+005
3531	-4.7926	4.8608	3.5459	5.1656e+005
3532	-4.914	4.3862	4.3384	6.3957e+005
3533	-5.4227	4.5467	4.0009	3.5895e+005
3534	-5.2103	4.417	4.5297	5.2385e+005
3535	-5.1993	4.9688	3.7638	2.0227e+005
3536	-4.6424	4.8949	6.5336	3.8507e+005
3537	-4.6786	5.5299	6.6412	3.9309e+005
3538	-4.5555	5.4319	5.5392	3.3803e+005
3539	-4.7404	5.5627	6.1763	3.1439e+005
3540	-4.3923	5.1216	5.997	4.5686e+005
3541	-5.1326	4.9041	6.8591	4.1788e+005
3542	-4.8419	5.0159	6.7179	3.9662e+005
3543	-5.2128	4.4179	6.5912	3.7291e+005
3544	-4.7546	4.4309	5.7978	5.1754e+005
3545	-4.9116	5.0191	6.253	3.1537e+005
3546	-4.5374	4.5876	6.0737	4.5704e+005
3547	-5.0485	4.3821	5.989	3.9968e+005
3548	-5.1991	4.7438	6.1151	2.9937e+005
3549	-5.2225	5.5784	6.9667	4.2368e+005
3550	-5.6176	5.0515	6.8399	3.9992e+005
3551	-5.2862	5.5497	6.5018	3.4625e+005
3552	-5.5724	5.2375	6.3639	3.2708e+005
3553	-5.5978	5.1634	2.9358	3.0819e+005
3554	-5.3817	5.4883	3.2932	3.7431e+005
3555	-5.0421	5.1052	3.2608	1.5132e+005
3556	-5.6046	4.8638	3.7157	56740
3557	-5.5598	5.266	3.4786	1.8454e+005
3558	-4.5396	5.4149	4.0109	3.4449e+005
3559	-4.8831	5.4398	3.6181	87474
3560	-4.9712	5.6191	6.3606	3.2191e+005
3561	-5.4394	4.5629	5.9699	3.8483e+005
3562	-5.6073	4.8765	6.096	2.8511e+005
3563	-4.6717	4.9648	4.8034	4.667e+005
3564	-5.1643	4.6461	4.6477	3.627e+005
3565	-4.5182	4.6102	5.2612	5.8636e+005
3566	-5.0189	4.3805	5.1765	5.2841e+005
3567	-4.9986	5.0007	4.9499	3.4401e+005
3568	-5.1084	5.1676	4.4658	1.9028e+005
3569	-4.8162	5.5919	5.2586	2.6936e+005
3570	-4.4134	5.2001	5.0793	4.1076e+005
3571	-4.9437	5.6172	4.2287	55348
3572	-4.9324	5.6161	4.768	1.7011e+005
3573	-5.4931	4.6246	4.839	2.4754e+005
3574	-5.5662	5.2521	4.0731	92395
3575	-5.6183	4.9576	4.965	1.5047e+005
3576	-5.5615	5.2624	4.6123	76910
3577	-4.7199	5.2341	5.7164	3.8676e+005
3578	-5.4287	5.4476	5.7578	2.2705e+005
3579	-5.1583	5.5992	5.4051	1.4428e+005
3580	-4.8522	4.6554	5.4524	4.705e+005
3581	-5.0074	4.9588	5.5785	3.6997e+005
3582	-4.8342	5.2039	5.2258	2.8599e+005
3583	-5.5518	4.7178	5.4938	3.1209e+005
3584	-5.2877	5.0095	5.1411	2.2913e+005
3585	-5.2798	5.553	4.3752	1.1744e+005
3586	-5.5062	5.3576	5.2672	1.3351e+005
3587	-3.9475	5.383	9.9413	19205
3588	-3.7361	4.9515	9.3821	12217
3589	-3.9219	5.1325	10.041	6004.1
3590	-3.2125	5.2056	9.4153	12074
3591	-3.5726	5.5217	9.6655	11906
3592	-3.6268	4.4022	9.8364	8970.5
3593	-3.8125	4.6283	10.496	14431
3594	-3.0601	4.3812	9.9656	8657.7
3595	-3.3316	4.6423	10.506	8218.
3596	-3.0561	4.4476	10.281	8375.5
3597	3.648	4.9893	9.3803	7913.7
3598	3.9661	5.5207	9.6639	16565
3599	3.4951	5.3378	9.4804	8964.9
3600	3.954	5.1329	9.6968	14128
3601	3.4718	4.4067	9.821	5931.7
3602	3.8229	4.635	10.501	8290.2
3603	3.0628	4.3818	10.044	7968.7
3604	3.3988	4.6556	10.515	7426.8
3605	2.9947	4.4828	10.341	8169.8
3606	3.7777	4.6932	10.09	9645.3
3607	-4.0205	5.2285	10.576	22674
3608	-3.6712	5.5872	10.198	20182
3609	-3.5403	5.4803	10.392	19040
3610	-4.4899	5.1598	10.183	1.1825e+005
3611	4.0962	5.1866	10.591	17662
3612	4.0631	5.5773	10.226	22448
3613	3.6721	5.2104	10.583	14552
3614	3.5603	5.5307	10.32	13854
3615	4.6083	5.2047	10.204	1.23e+005
3616	4.051	5.1805	10.197	13561
3617	-3.8091	4.7828	10.068	9149.1
3618	-3.0997	4.8387	9.4016	8952.
3619	-3.0567	4.5179	9.6106	8834.2
3620	-3.4598	5.1137	9.7303	5763.6
3621	-3.3282	4.8	10.069	3457.7
3622	3.1894	5.0179	9.3805	5636.
3623	2.9334	4.5034	9.6292	6508.1
3624	3.2695	4.8256	10.048	2407.9
3625	2.7576	4.7288	9.4427	7090.8
3626	3.6483	4.8103	9.7024	11698
3627	-3.6456	5.2862	10.28	11473
3628	-3.5139	4.9724	10.619	15309
3629	-3.5147	5.2623	10.562	13669
3630	3.6206	4.9579	10.618	8141.8
3631	4.5568	4.9668	10.279	1.2812e+005
3632	3.9995	4.9426	10.272	11712
3633	3.5075	5.5357	9.6883	15132
3634	3.5875	5.2996	10.277	12013
3635	3.4757	5.6185	10.04	15253
3636	4.5237	5.3085	9.9386	1.1776e+005
3637	3.9664	5.2843	9.9314	15522
3638	-2.533	4.7166	9.4488	6488.7
3639	-2.9362	5.4512	9.5752	7566.7
3640	-2.8045	5.0421	10.004	864.74
3641	-2.8053	5.2986	9.8749	4250.4
3642	-1.8228	4.9665	9.3811	7371.2
3643	-2.3151	5.4504	9.5743	6069.9
3644	-2.4128	5.254	9.9246	3455.9
3645	-2.0829	5.218	9.4198	7743.5
3646	-2.7615	4.7182	10.17	4429.2
3647	-2.486	4.3813	10.036	6250.4
3648	-1.7797	4.6093	9.5189	7100.7
3649	-2.272	5.0318	9.8303	2499.3
3650	-1.8684	4.3833	9.9385	7205.7
3651	-2.3698	4.9302	10.091	1165.3
3652	-2.1876	4.6609	10.164	4772.2
3653	-2.0398	4.8895	9.5987	5610.4
3654	2.7804	4.8826	9.6636	4383.4
3655	3.1165	5.1722	10.058	2506.6
3656	3.0047	5.5808	9.7837	6266.1
3657	2.6046	5.087	9.3864	6772.7
3658	2.5191	5.4068	9.5324	7597.3
3659	3.4954	5.1568	9.7124	12251
3660	2.8605	4.6934	10.225	5224.7
3661	2.7486	5.0033	9.9875	426.01
3662	2.3486	4.5479	9.5761	7106.
3663	2.4564	4.3973	10.144	7035.9
3664	1.9366	4.3972	9.856	7679.6
3665	-3.1646	5.3034	10.281	5940.5
3666	-3.1654	5.598	10.163	8390.9
3667	-2.6751	5.617	9.9413	8687.1
3668	-2.7575	4.702	10.543	6570.3
3669	-3.0337	5.2778	10.554	7160.7
3670	-2.6413	5.2165	10.581	7422.5
3671	-2.459	4.932	10.616	8222.3
3672	3.0847	5.3771	10.492	6119.5
3673	2.7924	4.7442	10.564	7662.9
3674	2.5622	5.1792	10.593	7897.1
3675	3.5754	4.9676	10.274	8404.6
3676	2.5728	5.1977	9.7801	3936.5
3677	2.6806	5.074	10.283	3725.8
3678	2.4873	5.5984	9.8388	6942.7
3679	2.4504	5.513	10.348	7268.2
3680	2.4896	5.6148	10.079	7614.2
3681	-1.8644	4.4358	10.256	6716.7
3682	-2.1836	4.6527	10.513	6597.6
3683	2.2805	4.6691	9.9186	4539.6
3684	2.0872	5.1439	9.3972	6776.6
3685	1.7608	4.5304	9.5955	6755.7
3686	2.0503	5.075	9.9612	988.26
3687	1.5416	4.833	9.4032	7996.3
3688	1.8114	4.7095	9.9551	3891.2
3689	1.8229	4.9784	9.7255	3665.8
3690	1.8686	4.404	10.17	7004.7
3691	2.1582	4.9353	10.616	6106.9
3692	1.9192	4.5841	10.46	8044.1
3693	-2.5443	5.5983	10.162	7291.5
3694	-2.6421	5.4608	10.414	7791.1
3695	-1.1581	4.4623	9.6919	5275.9
3696	-1.3295	5.094	9.3874	7014.3
3697	-7.9475e-002	4.8569	9.397	7597.4
3698	-0.55753	4.6041	9.5232	6918.8
3699	-0.98664	5.1985	9.4129	6102.5
3700	-0.91674	4.8519	10.003	1915.7
3701	-0.25604	5.2384	9.4279	5549.7
3702	-1.0585	5.1972	9.8392	2932.
3703	-2.1518	5.5774	10.225	6903.7
3704	-1.9696	5.2459	10.274	4655.1
3705	-1.8219	5.5281	9.6756	7095.3
3706	-1.4789	5.5762	9.7717	7307.1
3707	-1.5508	5.6094	10.113	7286.4
3708	-1.5659	4.5764	10.452	6451.8
3709	-1.4182	4.8674	9.8208	2999.
3710	-0.64617	4.3827	9.9452	7314.6
3711	-1.0054	4.5723	10.449	6392.2
3712	-0.45302	4.4733	10.327	7097.6
3713	-1.1471	4.9784	10.221	2751.9
3714	1.9648	5.403	10.039	5136.3
3715	1.4561	5.1845	9.4084	7064.
3716	2.004	5.5776	9.7753	7191.5
3717	1.2795	5.4969	9.6295	7448.
3718	1.7374	5.3064	9.8038	4788.8
3719	1.1297	4.559	9.5645	6386.3
3720	1.3994	4.4212	10.222	6613.5
3721	0.65161	4.4115	9.8056	7733.
3722	0.84477	4.4126	10.198	6558.9
3723	1.1339	4.9236	10.151	2010.7
3724	1.4109	4.7779	9.9583	2584.5
3725	-2.0674	5.1615	10.598	6981.1
3726	-1.6485	5.4927	10.376	7625.6
3727	1.689	4.9897	10.62	6516.4
3728	1.9671	5.5475	10.29	6941.1
3729	1.446	5.2378	10.572	7333.1
3730	1.4235	5.4087	10.466	7996.1
3731	1.7005	5.2607	10.271	4871.
3732	-1.7374	5.1036	10.042	1485.7
3733	-1.3246	4.8694	10.606	7997.9
3734	-1.4663	5.2707	10.557	6332.7
3735	-1.2468	5.4176	9.5421	7693.8
3736	-1.3186	5.4433	9.8769	5793.
3737	0.43243	4.6177	9.5122	7073.8
3738	0.73392	5.2544	9.4349	6089.2
3739	0.62559	4.7304	9.9276	3433.
3740	0.91477	5.1648	9.9067	2725.2
3741	1.1917	5.019	9.7141	3768.6
3742	0.89535	4.6062	10.479	7821.9
3743	1.2071	4.8544	10.602	6862.1
3744	1.1845	5.0409	10.457	5824.7
3745	1.4615	4.8951	10.265	3600.7
3746	1.2818	5.6004	9.8464	7036.7
3747	1.4626	5.5751	10.231	7431.1
3748	1.7396	5.3919	10.023	4950.6
3749	-0.47474	4.9657	9.6769	3990.2
3750	-0.40484	4.6524	10.169	5027.8
3751	0.25586	4.9893	9.7124	3339.3
3752	0.14753	4.3923	10.122	6352.5
3753	3.864e-002	4.9052	10.115	2198.8
3754	-0.83395	5.1772	10.113	2914.6
3755	-0.17325	5.5154	9.6558	7244.5
3756	-0.97566	5.6168	9.9399	6336.9
3757	-0.39047	5.4301	10.059	5208.2
3758	-0.21168	4.7163	10.551	7557.7
3759	-0.90576	5.2656	10.56	6256.8
3760	-0.32057	5.1285	10.606	7112.4
3761	0.44902	5.0623	10.077	1392.8
3762	-0.24506	5.6195	9.9825	6454.6
3763	0.7382	5.6158	10.07	6257.4
3764	0.34013	5.6067	10.127	5462.4
3765	1.0152	5.3509	9.8635	4471.6
3766	0.6524	4.8298	10.596	6607.5
3767	0.62987	5.0212	10.441	5528.4
3768	0.2318	4.9719	10.619	5945.1
3769	-0.46228	5.475	10.398	7446.8
3770	0.94158	5.2968	10.544	7116.5
3771	0.54351	5.2448	10.569	7100.
3772	0.52098	5.4144	10.461	7797.1
3773	1.196	5.3098	10.228	5102.7
3774	4.5814	-4.8429	-3.3399e-002	2.4683e+005
3775	4.9076	-4.8005	0.25037	3.0298e+005
3776	4.6051	-4.9676	0.24536	2.126e+005
3777	4.7978	4.6317	5.7614e-002	2.4209e+005
3778	4.7883	5.0195	0.39801	1.7287e+005
3779	-4.8665	-4.5803	-2.1496e-002	2.5034e+005
3780	-4.8692	-4.9986	0.46105	1.8729e+005
3781	5.0497	-4.9472	9.5538	2.7901e+005
3782	5.0578	-4.5761	9.9856	1.3103e+005
3783	5.0331	-3.6945	9.9948	23784
3784	-4.0687	5.002	-4.6163e-002	1.9103e+005
3785	5.0492	4.9787	9.6037	2.8066e+005
3786	-4.7132	4.619	-4.2836e-002	2.3668e+005
3787	-4.7375	4.9787	0.27613	2.2611e+005
3788	5.0496	4.5538	9.9473	1.3198e+005
3789	-4.9329	4.6108	0.26554	1.7518e+005
3790	-4.9879	-5.1429	9.5714	3.214e+005
3791	-5.0071	-5.0006	8.6745	4.1775e+005
3792	-5.0092	-4.7724	9.9936	1.5748e+005
3793	-4.9825	4.9403	9.6501	2.6878e+005
3794	4.5098	-4.9576	10.019	1.2005e+005
3795	4.5116	4.9765	9.9354	1.2322e+005
3796	-5.0512	5.05	8.9713	4.4027e+005
3797	4.9557	-2.3958	5.8202e-002	1.8301e+005
3798	4.9254	-4.9359	0.88335	2.5476e+005
3799	5.0059	2.2957	-1.2588e-002	1.6566e+005
3800	5.0522	-2.7816	10.028	1424.
3801	-4.9964	-5.0779	7.8002	4.1044e+005
3802	-5.0238	2.7876	10.045	1957.2
